

Document
Record Time: 11.03.2025 11:32

Experiment
Used Setup: 561nm_300g
Total ND-Filter: 1,30
Laser-Power: 1,684mW
Used Objective: 20x

Setup-Objects
Lightsource: 561nm
Stage-Bragg: open
Stage-Pockel: in
Edge-Filter RE: Open
Edge-Filter MI: 561
Edge-Filter LI: 594 nm
Detector: PicamModel_Pylon100B_05493718

Spectrometers
Spectrometer
Serialnumber: 27560711
Model: SP-2-750i
Stage_Number: 1
Focallength: 750
Inclusion_Angle: 6.5
Detector_Angle: 0.68
Groove_Density: 300 g/mm
Order: 1
Mode: Additive
Slit_Entrance-Side: 100


Detector
Name: PicamModel_Pylon100B_05493718
Serialnumber: 
Detector_Size: 1340;100
Detector_Temperature: -120
Exposure_Time_(ms): 10000
Exposure_Mode: 
No_of_Accumulations: 1
Calc_Average: True
No_of_Frames: 10
ADC__Quality: Low Noise
ADC__Speed: 4 MHz
ADC__Gain: High
Shutter-Mode: open
Region_of_Interests: 1|1;1340;1;40;60;21

Calibration
Center_Wavelength: 631,988
Laser_Wavelength: 561,070

Frame 1
393.321	671
395.969	676
398.617	699
401.264	686
403.910	681
406.556	700
409.200	694
411.844	714
414.487	707
417.129	717
419.771	681
422.411	721
425.051	720
427.690	690
430.328	738
432.965	714
435.602	747
438.237	709
440.872	740
443.506	757
446.140	730
448.772	740
451.404	746
454.034	728
456.665	736
459.294	735
461.922	772
464.550	729
467.177	773
469.803	770
472.428	751
475.052	758
477.676	732
480.299	749
482.920	739
485.542	729
488.162	779
490.782	763
493.400	755
496.018	733
498.636	768
501.252	747
503.868	757
506.482	763
509.096	756
511.709	757
514.322	809
516.933	900
519.544	987
522.154	1074
524.763	1100
527.372	1079
529.979	927
532.586	808
535.192	779
537.797	763
540.402	765
543.005	760
545.608	759
548.210	733
550.812	746
553.412	740
556.012	776
558.611	744
561.209	748
563.806	746
566.402	738
568.998	749
571.593	764
574.187	720
576.780	748
579.373	758
581.965	753
584.556	731
587.146	754
589.735	726
592.324	713
594.912	745
597.499	767
600.085	752
602.670	766
605.255	732
607.839	789
610.422	769
613.004	809
615.586	792
618.167	850
620.747	865
623.326	916
625.904	880
628.482	874
631.059	865
633.635	807
636.210	809
638.784	765
641.358	758
643.931	768
646.503	738
649.074	749
651.645	735
654.215	744
656.784	722
659.352	759
661.920	735
664.486	760
667.052	738
669.617	741
672.182	738
674.745	756
677.308	741
679.870	727
682.431	703
684.992	727
687.552	736
690.110	733
692.669	732
695.226	721
697.783	768
700.338	762
702.893	765
705.448	753
708.001	745
710.554	764
713.106	752
715.657	753
718.208	774
720.757	763
723.306	765
725.854	761
728.402	751
730.948	762
733.494	746
736.039	799
738.583	763
741.127	767
743.670	734
746.212	772
748.753	744
751.293	725
753.833	775
756.372	771
758.910	761
761.448	782
763.984	765
766.520	763
769.055	763
771.589	752
774.123	798
776.656	822
779.188	895
781.719	1200
784.250	1518
786.779	1733
789.308	1786
791.837	1514
794.364	1164
796.891	885
799.417	849
801.942	810
804.467	792
806.990	782
809.513	804
812.035	799
814.557	787
817.077	787
819.597	768
822.116	781
824.635	761
827.152	783
829.669	739
832.185	753
834.701	769
837.215	757
839.729	806
842.242	756
844.755	762
847.266	793
849.777	761
852.287	771
854.797	729
857.305	764
859.813	748
862.320	752
864.826	739
867.332	774
869.837	743
872.341	761
874.844	739
877.347	730
879.849	760
882.350	740
884.850	756
887.350	762
889.848	801
892.347	767
894.844	737
897.340	763
899.836	748
902.331	785
904.826	713
907.319	726
909.812	732
912.304	732
914.796	774
917.286	737
919.776	742
922.265	748
924.754	763
927.242	782
929.728	759
932.215	715
934.700	749
937.185	728
939.669	746
942.152	741
944.634	745
947.116	744
949.597	746
952.077	746
954.557	761
957.036	768
959.514	752
961.991	730
964.468	715
966.943	790
969.418	771
971.893	763
974.366	777
976.839	777
979.311	754
981.783	772
984.254	762
986.724	793
989.193	838
991.661	843
994.129	907
996.596	1079
999.062	1570
1001.528	2075
1003.993	2356
1006.457	2377
1008.920	2083
1011.383	1250
1013.844	932
1016.306	820
1018.766	825
1021.226	825
1023.685	845
1026.143	1027
1028.600	1149
1031.057	1162
1033.513	1185
1035.968	1152
1038.423	917
1040.877	794
1043.330	786
1045.782	778
1048.234	735
1050.685	779
1053.135	740
1055.585	734
1058.033	760
1060.482	747
1062.929	741
1065.375	733
1067.821	761
1070.266	760
1072.711	772
1075.155	761
1077.598	756
1080.040	750
1082.481	718
1084.922	725
1087.362	721
1089.802	714
1092.240	717
1094.678	756
1097.115	743
1099.552	769
1101.988	767
1104.423	740
1106.857	716
1109.291	731
1111.723	720
1114.156	768
1116.587	755
1119.018	730
1121.448	723
1123.877	747
1126.306	766
1128.734	773
1131.161	743
1133.587	764
1136.013	741
1138.438	734
1140.862	728
1143.286	755
1145.709	755
1148.131	795
1150.552	854
1152.973	801
1155.393	862
1157.812	870
1160.231	855
1162.649	815
1165.066	827
1167.482	774
1169.898	800
1172.313	810
1174.727	831
1177.141	848
1179.554	815
1181.966	864
1184.377	837
1186.788	829
1189.198	797
1191.607	776
1194.016	792
1196.424	784
1198.831	806
1201.238	839
1203.644	890
1206.049	993
1208.453	1141
1210.857	1142
1213.260	1116
1215.662	1065
1218.064	868
1220.464	828
1222.865	816
1225.264	769
1227.663	763
1230.061	758
1232.458	736
1234.855	748
1237.251	742
1239.646	781
1242.041	753
1244.434	737
1246.828	773
1249.220	733
1251.612	741
1254.003	751
1256.393	718
1258.783	761
1261.172	745
1263.560	729
1265.947	752
1268.334	727
1270.720	746
1273.106	757
1275.491	766
1277.875	733
1280.258	747
1282.641	747
1285.022	747
1287.404	751
1289.784	737
1292.164	769
1294.543	757
1296.922	742
1299.300	755
1301.677	745
1304.053	757
1306.429	751
1308.804	749
1311.178	782
1313.552	761
1315.925	726
1318.297	769
1320.668	761
1323.039	757
1325.409	755
1327.779	768
1330.148	789
1332.516	783
1334.883	750
1337.250	744
1339.616	794
1341.981	736
1344.346	760
1346.710	733
1349.073	748
1351.436	757
1353.797	760
1356.159	779
1358.519	739
1360.879	777
1363.238	803
1365.597	790
1367.954	769
1370.311	785
1372.668	810
1375.023	860
1377.378	901
1379.733	900
1382.086	929
1384.439	862
1386.792	813
1389.143	807
1391.494	786
1393.844	757
1396.194	760
1398.543	733
1400.891	787
1403.239	753
1405.585	775
1407.931	748
1410.277	770
1412.622	773
1414.966	761
1417.309	786
1419.652	786
1421.994	765
1424.335	762
1426.676	766
1429.016	802
1431.355	799
1433.694	771
1436.032	795
1438.369	800
1440.706	804
1443.042	798
1445.377	820
1447.712	766
1450.046	773
1452.379	802
1454.712	779
1457.044	818
1459.375	832
1461.705	767
1464.035	765
1466.364	775
1468.693	749
1471.021	786
1473.348	773
1475.675	773
1478.000	772
1480.326	755
1482.650	763
1484.974	755
1487.297	801
1489.619	770
1491.941	797
1494.262	794
1496.583	779
1498.903	763
1501.222	756
1503.540	731
1505.858	747
1508.175	758
1510.492	757
1512.807	775
1515.123	753
1517.437	755
1519.751	747
1522.064	751
1524.376	761
1526.688	743
1528.999	746
1531.310	754
1533.619	764
1535.929	766
1538.237	758
1540.545	792
1542.852	749
1545.158	767
1547.464	736
1549.769	767
1552.074	775
1554.378	752
1556.681	747
1558.983	756
1561.285	747
1563.586	787
1565.887	766
1568.187	758
1570.486	804
1572.784	776
1575.082	826
1577.379	843
1579.676	863
1581.972	882
1584.267	895
1586.561	912
1588.855	893
1591.149	890
1593.441	862
1595.733	887
1598.024	924
1600.315	945
1602.605	997
1604.894	1067
1607.183	978
1609.471	898
1611.758	890
1614.045	843
1616.331	840
1618.616	850
1620.901	807
1623.185	801
1625.468	808
1627.751	790
1630.033	761
1632.314	740
1634.595	795
1636.875	746
1639.155	771
1641.434	730
1643.712	769
1645.989	748
1648.266	743
1650.542	760
1652.818	791
1655.093	747
1657.367	708
1659.641	726
1661.914	763
1664.186	761
1666.457	729
1668.728	739
1670.999	759
1673.269	719
1675.538	748
1677.806	747
1680.074	735
1682.341	779
1684.607	741
1686.873	725
1689.138	759
1691.403	749
1693.667	740
1695.930	764
1698.193	748
1700.455	737
1702.716	731
1704.976	740
1707.236	764
1709.496	748
1711.755	726
1714.013	726
1716.270	754
1718.527	714
1720.783	711
1723.038	714
1725.293	751
1727.548	725
1729.801	731
1732.054	753
1734.306	752
1736.558	764
1738.809	715
1741.059	732
1743.309	726
1745.558	726
1747.807	746
1750.054	746
1752.302	722
1754.548	746
1756.794	740
1759.039	739
1761.284	734
1763.528	727
1765.771	757
1768.014	758
1770.256	737
1772.497	728
1774.738	736
1776.978	742
1779.218	749
1781.457	718
1783.695	734
1785.933	727
1788.170	730
1790.406	734
1792.642	739
1794.877	720
1797.111	739
1799.345	730
1801.578	734
1803.811	764
1806.043	739
1808.274	736
1810.505	704
1812.735	721
1814.964	753
1817.193	718
1819.421	737
1821.648	754
1823.875	731
1826.101	719
1828.327	721
1830.552	744
1832.776	711
1835.000	715
1837.223	750
1839.445	722
1841.667	741
1843.888	765
1846.109	728
1848.329	713
1850.548	743
1852.767	739
1854.985	742
1857.202	719
1859.419	751
1861.635	701
1863.851	719
1866.066	706
1868.280	687
1870.494	734
1872.707	724
1874.919	738
1877.131	743
1879.342	730
1881.553	746
1883.763	715
1885.972	722
1888.181	734
1890.389	738
1892.596	726
1894.803	724
1897.009	724
1899.215	728
1901.420	721
1903.624	750
1905.828	725
1908.031	733
1910.233	753
1912.435	772
1914.636	724
1916.837	723
1919.037	744
1921.236	717
1923.435	711
1925.633	726
1927.831	711
1930.027	709
1932.224	714
1934.419	722
1936.614	712
1938.809	726
1941.003	731
1943.196	709
1945.388	721
1947.580	721
1949.772	729
1951.962	720
1954.152	724
1956.342	743
1958.531	753
1960.719	722
1962.907	717
1965.094	752
1967.280	724
1969.466	727
1971.651	719
1973.836	719
1976.020	707
1978.203	739
1980.386	719
1982.568	736
1984.749	742
1986.930	731
1989.111	733
1991.290	711
1993.469	711
1995.648	709
1997.826	717
2000.003	714
2002.179	720
2004.355	737
2006.531	762
2008.706	737
2010.880	732
2013.053	734
2015.226	725
2017.399	733
2019.570	713
2021.742	699
2023.912	717
2026.082	722
2028.251	725
2030.420	733
2032.588	724
2034.756	726
2036.923	717
2039.089	717
2041.255	718
2043.420	738
2045.584	721
2047.748	715
2049.911	694
2052.074	718
2054.236	705
2056.397	716
2058.558	701
2060.719	712
2062.878	691
2065.037	728
2067.196	721
2069.354	727
2071.511	708
2073.667	713
2075.823	716
2077.979	722
2080.134	709
2082.288	714
2084.442	700
2086.595	708
2088.747	726
2090.899	707
2093.050	727
2095.201	746
2097.351	709
2099.500	713
2101.649	697
2103.797	714
2105.945	708
2108.092	740
2110.238	717
2112.384	716
2114.529	717
2116.674	713
2118.818	712
2120.962	713
2123.104	712
2125.247	711
2127.388	720
2129.529	717
2131.670	721
2133.810	703
2135.949	735
2138.088	708
2140.226	698
2142.363	736
2144.500	694
2146.637	724
2148.772	714
2150.908	729
2153.042	713
2155.176	709
2157.309	692
2159.442	726
2161.574	727
2163.706	718
2165.837	708
2167.967	706
2170.097	712
2172.226	730
2174.355	727
2176.483	720
2178.611	694
2180.737	701
2182.864	714
2184.989	705
2187.114	728
2189.239	705
2191.363	713
2193.486	721
2195.609	714
2197.731	713
2199.853	700
2201.974	708
2204.094	709
2206.214	689
2208.333	707
2210.452	710
2212.570	701
2214.687	691
2216.804	720
2218.920	711
2221.036	692
2223.151	687
2225.266	707
2227.380	706
2229.493	684
2231.606	723
2233.718	697
2235.830	706
2237.941	704
2240.051	698
2242.161	687
2244.270	703
2246.379	706
2248.487	694
2250.595	722
2252.702	698
2254.808	682
2256.914	682
2259.019	722
2261.124	711
2263.228	694
2265.331	706
2267.434	691
2269.536	679
2271.638	697
2273.739	716
2275.840	712
2277.940	704
2280.039	697
2282.138	706
2284.236	696
2286.334	696
2288.431	705
2290.528	700
2292.624	704
2294.719	705
2296.814	707
2298.908	698
2301.002	720
2303.095	697
2305.187	685
2307.279	701
2309.371	709
2311.461	701
2313.552	696
2315.641	702
2317.730	705
2319.819	696
2321.907	694
2323.994	721
2326.081	691
2328.167	699
2330.253	711
2332.338	704
2334.422	699
2336.506	710
2338.589	687
2340.672	714
2342.754	683
2344.836	703
2346.917	706
2348.997	704
2351.077	691
2353.157	700
2355.235	705
2357.313	690
2359.391	702
2361.468	717
2363.545	703
2365.621	701
2367.696	708
2369.771	689
2371.845	699
2373.918	714
2375.992	712
2378.064	697
2380.136	719
2382.207	678
2384.278	717
2386.348	695
2388.418	702
2390.487	713
2392.556	693
2394.624	707
2396.691	694
2398.758	714
2400.824	692
2402.890	702
2404.955	704
2407.020	704
2409.084	689
2411.147	693
2413.210	695
2415.272	714
2417.334	713
2419.395	693
2421.456	683
2423.516	692
2425.575	696
2427.634	699
2429.693	698
2431.751	703
2433.808	707
2435.865	692
2437.921	694
2439.976	713
2442.031	704
2444.086	688
2446.140	704
2448.193	678
2450.246	687
2452.298	701
2454.350	684
2456.401	693
2458.451	717
2460.501	668
2462.551	699
2464.600	694
2466.648	697
2468.696	697
2470.743	698
2472.790	692
2474.836	698
2476.881	671
2478.926	687
2480.971	676
2483.014	698
2485.058	695
2487.101	696
2489.143	676
2491.184	682
2493.225	685
2495.266	690
2497.306	703
2499.345	684
2501.384	702
2503.423	690
2505.460	695
2507.498	693
2509.534	683
2511.570	703
2513.606	692
2515.641	713
2517.675	700
2519.709	708
2521.742	688
2523.775	662
2525.807	693
2527.839	687
2529.870	708
2531.901	697
2533.931	705
2535.960	690
2537.989	694
2540.018	701
2542.046	715
2544.073	703
2546.100	698
2548.126	706
2550.151	708
2552.176	717
2554.201	716
2556.225	713
2558.248	718
2560.271	720
2562.294	717
2564.316	699
2566.337	694
2568.357	713
2570.378	723
2572.397	701
2574.416	699
2576.435	694
2578.453	716
2580.470	719
2582.487	723
2584.503	735
2586.519	694
2588.535	705
2590.549	713
2592.563	696
2594.577	691
2596.590	675
2598.603	687
2600.615	682
2602.626	685
2604.637	707
2606.647	711
2608.657	718
2610.666	703
2612.675	665
2614.683	719
2616.691	698
2618.698	677
2620.705	693
2622.711	694
2624.716	661
2626.721	685
2628.726	678
2630.729	681
2632.733	689
2634.736	690
2636.738	675
2638.739	683
2640.741	702
2642.741	693
2644.741	707
2646.741	692
2648.740	675
2650.738	715
2652.736	709
2654.734	692
2656.731	686
2658.727	699
2660.723	695
2662.718	654
2664.713	669
2666.707	698
2668.701	691
2670.694	669
2672.686	677
2674.678	691
2676.670	668
2678.661	674
2680.651	701
2682.641	667
2684.630	673
2686.619	682
2688.608	690
2690.595	671
2692.583	697
2694.569	687
2696.555	685
2698.541	693
2700.526	696
2702.511	691
2704.495	714
2706.478	698
2708.461	691
2710.444	679
2712.426	686
2714.407	693
2716.388	702
2718.368	668
2720.348	696
2722.327	699
2724.306	690
2726.284	688
2728.262	710
2730.239	757
2732.215	734
2734.192	741
2736.167	741
2738.142	720
2740.117	734
2742.091	737
2744.064	708
2746.037	715
2748.009	705
2749.981	716
2751.952	692
2753.923	702
2755.893	699
2757.863	709
2759.832	683
2761.801	692
2763.769	688
2765.737	676
2767.704	698
2769.671	701
2771.637	691
2773.602	709
2775.567	688
2777.532	706
2779.496	681
2781.459	722
2783.422	712
2785.384	678
2787.346	699
2789.308	688
2791.268	672
2793.229	681
2795.189	698
2797.148	695
2799.107	702
2801.065	706
2803.022	690
2804.980	716
2806.936	693
2808.892	717
2810.848	682
2812.803	686
2814.758	705
2816.712	685
2818.665	716
2820.618	706
2822.571	708
2824.523	698
2826.474	695
2828.425	698
2830.375	724
2832.325	699
2834.275	698
2836.223	716
2838.172	729
2840.120	730
2842.067	709
2844.014	726
2845.960	754
2847.906	759
2849.851	792
2851.796	793
2853.740	821
2855.683	822
2857.627	841
2859.569	835
2861.511	861
2863.453	853
2865.394	863
2867.335	807
2869.275	828
2871.214	834
2873.153	852
2875.092	854
2877.030	802
2878.967	815
2880.904	797
2882.841	839
2884.777	805
2886.712	773
2888.647	771
2890.581	816
2892.515	812
2894.449	807
2896.382	836
2898.314	809
2900.246	844
2902.177	895
2904.108	944
2906.038	968
2907.968	1053
2909.897	1110
2911.826	1184
2913.755	1166
2915.682	1237
2917.610	1264
2919.536	1182
2921.463	1232
2923.388	1142
2925.313	1104
2927.238	1011
2929.162	969
2931.086	983
2933.009	906
2934.932	905
2936.854	850
2938.776	872
2940.697	845
2942.618	838
2944.538	791
2946.457	843
2948.376	819
2950.295	804
2952.213	799
2954.131	786
2956.048	806
2957.964	801
2959.881	806
2961.796	793
2963.711	805
2965.626	760
2967.540	785
2969.453	801
2971.366	766
2973.279	833
2975.191	860
2977.103	852
2979.014	859
2980.924	882
2982.834	869
2984.744	805
2986.653	785
2988.561	818
2990.469	793
2992.377	799
2994.284	825
2996.190	819
2998.096	867
3000.002	841
3001.907	846
3003.811	823
3005.715	821
3007.619	830
3009.522	803
3011.424	863
3013.326	831
3015.228	837
3017.129	845
3019.029	898
3020.929	869
3022.829	915
3024.728	960
3026.626	1009
3028.524	1058
3030.422	1048
3032.319	1086
3034.215	1115
3036.111	1125
3038.007	1168
3039.902	1198
3041.797	1185
3043.691	1300
3045.584	1412
3047.477	1455
3049.370	1563
3051.262	1779
3053.153	1716
3055.044	1719
3056.935	1550
3058.825	1501
3060.714	1423
3062.604	1303
3064.492	1256
3066.380	1204
3068.268	1146
3070.155	1037
3072.041	968
3073.928	920
3075.813	877
3077.698	869
3079.583	829
3081.467	820
3083.351	744
3085.234	770
3087.116	764
3088.999	738
3090.880	742
3092.761	754
3094.642	743
3096.522	736
3098.402	734
3100.281	739
3102.160	722
3104.038	722
3105.916	742
3107.793	700
3109.670	713
3111.546	720
3113.422	716
3115.297	700
3117.172	710
3119.046	711
3120.920	721
3122.793	688
3124.666	697
3126.539	690
3128.410	677
3130.282	708
3132.153	685
3134.023	681
3135.893	685
3137.762	673
3139.631	691
3141.500	693
3143.368	676
3145.235	696
3147.102	680
3148.969	687
3150.835	678
3152.700	683
3154.565	708
3156.430	696
3158.294	688
3160.157	691
3162.020	700
3163.883	692
3165.745	718
3167.607	697
3169.468	714
3171.329	673
3173.189	667
3175.048	662
3176.908	682
3178.766	675
3180.625	661
3182.482	685
3184.340	675
3186.196	658
3188.053	686
3189.909	713
3191.764	685
3193.619	683
3195.473	682
3197.327	681
3199.181	692
3201.034	711
3202.886	680
3204.738	683
3206.589	672
3208.440	674
3210.291	664
3212.141	675
3213.991	667
3215.840	671
3217.688	680
3219.536	663
3221.384	656
3223.231	658
3225.078	663
3226.924	689
3228.770	667
3230.615	648
3232.460	672
3234.304	663
3236.148	687
3237.992	652
3239.834	658
3241.677	649
3243.519	642
3245.360	654
3247.201	665
3249.042	668
3250.882	654
3252.721	659
3254.560	658
3256.399	650
3258.237	652
3260.075	663
3261.912	659
3263.748	665
3265.585	667
3267.420	644
3269.256	637
3271.090	674
3272.925	677
3274.759	677
3276.592	671
3278.425	662
3280.257	652
3282.089	674
3283.921	642
3285.752	662
3287.582	657
3289.412	655
3291.242	657
3293.071	667
3294.899	654
3296.728	649
3298.555	657
3300.383	663
3302.209	661
3304.036	652
3305.861	647
3307.687	671
3309.512	644
3311.336	665
3313.160	656
3314.983	677
3316.806	671
3318.629	646
3320.451	657
3322.272	672
3324.094	649
3325.914	654
3327.734	667
3329.554	641
3331.373	637
3333.192	648

Frame 2
393.321	677
395.969	683
398.617	720
401.264	686
403.910	680
406.556	710
409.200	689
411.844	719
414.487	732
417.129	703
419.771	729
422.411	716
425.051	694
427.690	703
430.328	748
432.965	730
435.602	746
438.237	710
440.872	740
443.506	743
446.140	739
448.772	742
451.404	742
454.034	748
456.665	770
459.294	742
461.922	751
464.550	747
467.177	746
469.803	749
472.428	768
475.052	754
477.676	729
480.299	738
482.920	730
485.542	787
488.162	741
490.782	738
493.400	759
496.018	750
498.636	764
501.252	728
503.868	751
506.482	772
509.096	746
511.709	787
514.322	795
516.933	915
519.544	980
522.154	1098
524.763	1108
527.372	1083
529.979	955
532.586	840
535.192	817
537.797	756
540.402	767
543.005	738
545.608	745
548.210	737
550.812	749
553.412	725
556.012	714
558.611	722
561.209	740
563.806	722
566.402	750
568.998	763
571.593	722
574.187	732
576.780	754
579.373	719
581.965	751
584.556	734
587.146	758
589.735	734
592.324	736
594.912	748
597.499	749
600.085	738
602.670	739
605.255	760
607.839	756
610.422	748
613.004	756
615.586	783
618.167	795
620.747	876
623.326	974
625.904	899
628.482	898
631.059	853
633.635	828
636.210	782
638.784	800
641.358	756
643.931	765
646.503	749
649.074	761
651.645	744
654.215	728
656.784	732
659.352	733
661.920	723
664.486	744
667.052	757
669.617	736
672.182	736
674.745	753
677.308	748
679.870	742
682.431	762
684.992	738
687.552	737
690.110	760
692.669	774
695.226	727
697.783	737
700.338	738
702.893	758
705.448	731
708.001	764
710.554	745
713.106	737
715.657	727
718.208	751
720.757	746
723.306	751
725.854	762
728.402	728
730.948	752
733.494	778
736.039	778
738.583	774
741.127	774
743.670	761
746.212	765
748.753	750
751.293	735
753.833	736
756.372	719
758.910	751
761.448	744
763.984	735
766.520	780
769.055	773
771.589	785
774.123	780
776.656	832
779.188	920
781.719	1231
784.250	1496
786.779	1735
789.308	1805
791.837	1605
794.364	1178
796.891	879
799.417	842
801.942	803
804.467	811
806.990	799
809.513	809
812.035	789
814.557	781
817.077	791
819.597	788
822.116	765
824.635	762
827.152	754
829.669	755
832.185	781
834.701	733
837.215	761
839.729	755
842.242	766
844.755	782
847.266	792
849.777	791
852.287	781
854.797	728
857.305	743
859.813	754
862.320	761
864.826	749
867.332	744
869.837	744
872.341	744
874.844	751
877.347	755
879.849	767
882.350	754
884.850	749
887.350	758
889.848	737
892.347	770
894.844	761
897.340	794
899.836	750
902.331	763
904.826	777
907.319	749
909.812	762
912.304	728
914.796	730
917.286	735
919.776	731
922.265	734
924.754	756
927.242	730
929.728	758
932.215	719
934.700	714
937.185	765
939.669	721
942.152	716
944.634	742
947.116	745
949.597	733
952.077	746
954.557	730
957.036	734
959.514	729
961.991	736
964.468	765
966.943	787
969.418	765
971.893	790
974.366	763
976.839	826
979.311	744
981.783	783
984.254	768
986.724	824
989.193	806
991.661	867
994.129	872
996.596	1048
999.062	1644
1001.528	2181
1003.993	2457
1006.457	2525
1008.920	2131
1011.383	1292
1013.844	924
1016.306	793
1018.766	806
1021.226	802
1023.685	870
1026.143	977
1028.600	1194
1031.057	1232
1033.513	1299
1035.968	1133
1038.423	930
1040.877	799
1043.330	793
1045.782	751
1048.234	771
1050.685	759
1053.135	774
1055.585	741
1058.033	765
1060.482	747
1062.929	766
1065.375	728
1067.821	720
1070.266	763
1072.711	756
1075.155	735
1077.598	755
1080.040	758
1082.481	770
1084.922	737
1087.362	745
1089.802	752
1092.240	747
1094.678	756
1097.115	760
1099.552	757
1101.988	746
1104.423	738
1106.857	761
1109.291	723
1111.723	752
1114.156	729
1116.587	727.666666666667
1119.018	726.333333333333
1121.448	725
1123.877	723.666666666667
1126.306	722.333333333333
1128.734	721
1131.161	753
1133.587	748
1136.013	738
1138.438	763
1140.862	753
1143.286	767
1145.709	795
1148.131	768
1150.552	806
1152.973	831
1155.393	894
1157.812	866
1160.231	885
1162.649	845
1165.066	799
1167.482	787
1169.898	810
1172.313	797
1174.727	839
1177.141	839
1179.554	837
1181.966	858
1184.377	873
1186.788	804
1189.198	779
1191.607	784
1194.016	765
1196.424	784
1198.831	828
1201.238	829
1203.644	898
1206.049	1087
1208.453	1110
1210.857	1140
1213.260	1192
1215.662	1031
1218.064	869
1220.464	812
1222.865	766
1225.264	781
1227.663	765
1230.061	744
1232.458	758
1234.855	774
1237.251	723
1239.646	749
1242.041	772
1244.434	740
1246.828	750
1249.220	732
1251.612	747
1254.003	749
1256.393	771
1258.783	735
1261.172	746
1263.560	749
1265.947	762
1268.334	744
1270.720	753
1273.106	748
1275.491	715
1277.875	749
1280.258	746
1282.641	739
1285.022	795
1287.404	730
1289.784	707
1292.164	751
1294.543	742
1296.922	719
1299.300	752
1301.677	751
1304.053	769
1306.429	711
1308.804	733
1311.178	750
1313.552	794
1315.925	755
1318.297	751
1320.668	743
1323.039	771
1325.409	770
1327.779	761
1330.148	798
1332.516	786
1334.883	773
1337.250	766
1339.616	769
1341.981	759
1344.346	737
1346.710	768
1349.073	757
1351.436	766
1353.797	766
1356.159	746
1358.519	764
1360.879	780
1363.238	764
1365.597	778
1367.954	803
1370.311	810
1372.668	814
1375.023	900
1377.378	865
1379.733	927
1382.086	929
1384.439	881
1386.792	859
1389.143	827
1391.494	786
1393.844	793
1396.194	783
1398.543	771
1400.891	778
1403.239	777
1405.585	730
1407.931	735
1410.277	774
1412.622	749
1414.966	760
1417.309	754
1419.652	767
1421.994	768
1424.335	774
1426.676	770
1429.016	786
1431.355	812
1433.694	817
1436.032	796
1438.369	794
1440.706	811
1443.042	783
1445.377	823
1447.712	812
1450.046	808
1452.379	784
1454.712	786
1457.044	782
1459.375	811
1461.705	777
1464.035	798
1466.364	782
1468.693	799
1471.021	782
1473.348	804
1475.675	773
1478.000	768
1480.326	797
1482.650	792
1484.974	781
1487.297	768
1489.619	781
1491.941	778
1494.262	770
1496.583	794
1498.903	790
1501.222	755
1503.540	761
1505.858	792
1508.175	763
1510.492	756
1512.807	752
1515.123	749
1517.437	792
1519.751	767
1522.064	765
1524.376	773
1526.688	756
1528.999	772
1531.310	751
1533.619	754
1535.929	735
1538.237	765
1540.545	743
1542.852	768
1545.158	722
1547.464	767
1549.769	774
1552.074	784
1554.378	762
1556.681	777
1558.983	780
1561.285	789
1563.586	787
1565.887	773
1568.187	824
1570.486	775
1572.784	818
1575.082	807
1577.379	835
1579.676	871
1581.972	879
1584.267	926
1586.561	912
1588.855	892
1591.149	895
1593.441	897
1595.733	844
1598.024	905
1600.315	951
1602.605	1040
1604.894	1037
1607.183	1007
1609.471	938
1611.758	892
1614.045	846
1616.331	829
1618.616	839
1620.901	806
1623.185	795
1625.468	793
1627.751	842
1630.033	776
1632.314	793
1634.595	714
1636.875	782
1639.155	764
1641.434	769
1643.712	756
1645.989	773
1648.266	780
1650.542	738
1652.818	765
1655.093	743
1657.367	738
1659.641	739
1661.914	760
1664.186	732
1666.457	731
1668.728	735
1670.999	769
1673.269	774
1675.538	733
1677.806	754
1680.074	738
1682.341	748
1684.607	776
1686.873	736
1689.138	745
1691.403	757
1693.667	766
1695.930	725
1698.193	727
1700.455	738
1702.716	764
1704.976	741
1707.236	739
1709.496	745
1711.755	745
1714.013	706
1716.270	759
1718.527	728
1720.783	725
1723.038	728
1725.293	736
1727.548	754
1729.801	719
1732.054	730
1734.306	748
1736.558	713
1738.809	749
1741.059	768
1743.309	739
1745.558	730
1747.807	738
1750.054	734
1752.302	709
1754.548	751
1756.794	761
1759.039	720
1761.284	733
1763.528	743
1765.771	725
1768.014	699
1770.256	735
1772.497	736
1774.738	735
1776.978	782
1779.218	714
1781.457	732
1783.695	724
1785.933	736
1788.170	764
1790.406	734
1792.642	717
1794.877	751
1797.111	743
1799.345	754
1801.578	760
1803.811	721
1806.043	746
1808.274	749
1810.505	761
1812.735	716
1814.964	739
1817.193	727
1819.421	736
1821.648	740
1823.875	736
1826.101	726
1828.327	728
1830.552	728
1832.776	740
1835.000	741
1837.223	728
1839.445	734
1841.667	727
1843.888	736
1846.109	724
1848.329	725
1850.548	742
1852.767	719
1854.985	738
1857.202	707
1859.419	731
1861.635	728
1863.851	728
1866.066	724
1868.280	745
1870.494	748
1872.707	726
1874.919	717
1877.131	724
1879.342	725
1881.553	742
1883.763	724
1885.972	733
1888.181	759
1890.389	741
1892.596	745
1894.803	744
1897.009	727
1899.215	705
1901.420	739
1903.624	716
1905.828	725
1908.031	720
1910.233	708
1912.435	717
1914.636	726
1916.837	723
1919.037	694
1921.236	721
1923.435	729
1925.633	755
1927.831	732
1930.027	710
1932.224	748
1934.419	712
1936.614	716
1938.809	730
1941.003	723
1943.196	733
1945.388	715
1947.580	742
1949.772	729
1951.962	738
1954.152	709
1956.342	734
1958.531	720
1960.719	717
1962.907	730
1965.094	709
1967.280	719
1969.466	723
1971.651	725
1973.836	735
1976.020	725
1978.203	730
1980.386	714
1982.568	740
1984.749	732
1986.930	723
1989.111	708
1991.290	722
1993.469	719
1995.648	724
1997.826	746
2000.003	733
2002.179	705
2004.355	711
2006.531	740
2008.706	715
2010.880	736
2013.053	742
2015.226	714
2017.399	717
2019.570	726
2021.742	688
2023.912	741
2026.082	701
2028.251	731
2030.420	709
2032.588	722
2034.756	734
2036.923	710
2039.089	694
2041.255	712
2043.420	703
2045.584	721
2047.748	709
2049.911	705
2052.074	713
2054.236	715
2056.397	721
2058.558	717
2060.719	715
2062.878	715
2065.037	707
2067.196	722
2069.354	702
2071.511	721
2073.667	735
2075.823	710
2077.979	724
2080.134	714
2082.288	715
2084.442	715
2086.595	721
2088.747	718
2090.899	713
2093.050	712
2095.201	708
2097.351	713
2099.500	735
2101.649	713
2103.797	694
2105.945	709
2108.092	710
2110.238	757
2112.384	720
2114.529	735
2116.674	708
2118.818	719
2120.962	700
2123.104	709
2125.247	722
2127.388	712
2129.529	692
2131.670	715
2133.810	721
2135.949	717
2138.088	700
2140.226	720
2142.363	721
2144.500	697
2146.637	742
2148.772	694
2150.908	707
2153.042	700
2155.176	711
2157.309	711
2159.442	737
2161.574	707
2163.706	704
2165.837	722
2167.967	700
2170.097	729
2172.226	700
2174.355	725
2176.483	721
2178.611	723
2180.737	728
2182.864	696
2184.989	703
2187.114	723
2189.239	713
2191.363	728
2193.486	702
2195.609	713
2197.731	729
2199.853	711
2201.974	725
2204.094	721
2206.214	707
2208.333	713
2210.452	697
2212.570	708
2214.687	708
2216.804	700
2218.920	697
2221.036	710
2223.151	719
2225.266	731
2227.380	716
2229.493	711
2231.606	709
2233.718	741
2235.830	699
2237.941	704
2240.051	701
2242.161	722
2244.270	703
2246.379	712
2248.487	688
2250.595	710
2252.702	686
2254.808	716
2256.914	704
2259.019	703
2261.124	682
2263.228	708
2265.331	704
2267.434	710
2269.536	689
2271.638	691
2273.739	714
2275.840	711
2277.940	711
2280.039	690
2282.138	707
2284.236	689
2286.334	700
2288.431	713
2290.528	698
2292.624	691
2294.719	711
2296.814	713
2298.908	697
2301.002	688
2303.095	710
2305.187	712
2307.279	690
2309.371	694
2311.461	715
2313.552	693
2315.641	697
2317.730	680
2319.819	703
2321.907	719
2323.994	688
2326.081	682
2328.167	711
2330.253	685
2332.338	698
2334.422	690
2336.506	702
2338.589	697
2340.672	700
2342.754	707
2344.836	698
2346.917	689
2348.997	690
2351.077	696
2353.157	705
2355.235	694
2357.313	717
2359.391	703
2361.468	702
2363.545	708
2365.621	694
2367.696	693
2369.771	704
2371.845	703
2373.918	703
2375.992	698
2378.064	704
2380.136	703
2382.207	708
2384.278	691
2386.348	707
2388.418	715
2390.487	698
2392.556	682
2394.624	688
2396.691	710
2398.758	694
2400.824	679
2402.890	685
2404.955	696
2407.020	725
2409.084	696
2411.147	709
2413.210	703
2415.272	686
2417.334	699
2419.395	703
2421.456	718
2423.516	714
2425.575	674
2427.634	710
2429.693	714
2431.751	713
2433.808	690
2435.865	699
2437.921	702
2439.976	684
2442.031	713
2444.086	726
2446.140	680
2448.193	695
2450.246	720
2452.298	680
2454.350	707
2456.401	692
2458.451	707
2460.501	702
2462.551	706
2464.600	708
2466.648	698
2468.696	717
2470.743	696
2472.790	689
2474.836	692
2476.881	657
2478.926	702
2480.971	696
2483.014	686
2485.058	700
2487.101	695
2489.143	678
2491.184	687
2493.225	704
2495.266	693
2497.306	694
2499.345	668
2501.384	701
2503.423	679
2505.460	674
2507.498	701
2509.534	695
2511.570	676
2513.606	697
2515.641	705
2517.675	693
2519.709	685
2521.742	702
2523.775	697
2525.807	697
2527.839	698
2529.870	674
2531.901	687
2533.931	684
2535.960	668
2537.989	713
2540.018	694
2542.046	711
2544.073	687
2546.100	694
2548.126	705
2550.151	716
2552.176	709
2554.201	704
2556.225	690
2558.248	696
2560.271	711
2562.294	703
2564.316	689
2566.337	697
2568.357	737
2570.378	716
2572.397	697
2574.416	690
2576.435	694
2578.453	687
2580.470	720
2582.487	696
2584.503	706
2586.519	707
2588.535	718
2590.549	698
2592.563	690
2594.577	689
2596.590	716
2598.603	704
2600.615	719
2602.626	697
2604.637	700
2606.647	700
2608.657	720
2610.666	705
2612.675	702
2614.683	693
2616.691	689
2618.698	686
2620.705	688
2622.711	693
2624.716	690
2626.721	683
2628.726	710
2630.729	690
2632.733	690
2634.736	705
2636.738	721
2638.739	706
2640.741	708
2642.741	672
2644.741	708
2646.741	681
2648.740	705
2650.738	697
2652.736	692
2654.734	704
2656.731	698
2658.727	694
2660.723	690
2662.718	710
2664.713	684
2666.707	680
2668.701	685
2670.694	683
2672.686	695
2674.678	703
2676.670	703
2678.661	693
2680.651	667
2682.641	709
2684.630	682
2686.619	705
2688.608	689
2690.595	691
2692.583	681
2694.569	704
2696.555	700
2698.541	696
2700.526	693
2702.511	696
2704.495	681
2706.478	721
2708.461	695
2710.444	699
2712.426	692
2714.407	696
2716.388	700
2718.368	683
2720.348	680
2722.327	697
2724.306	712
2726.284	708
2728.262	698
2730.239	742
2732.215	761
2734.192	769
2736.167	737
2738.142	741
2740.117	736
2742.091	719
2744.064	698
2746.037	707
2748.009	709
2749.981	721
2751.952	673
2753.923	704
2755.893	705
2757.863	691
2759.832	706
2761.801	687
2763.769	702
2765.737	697
2767.704	695
2769.671	699
2771.637	675
2773.602	693
2775.567	694
2777.532	710
2779.496	704
2781.459	711
2783.422	689
2785.384	685
2787.346	707
2789.308	698
2791.268	704
2793.229	678
2795.189	691
2797.148	696
2799.107	704
2801.065	706
2803.022	692
2804.980	706
2806.936	712
2808.892	679
2810.848	691
2812.803	674
2814.758	681
2816.712	704
2818.665	700
2820.618	685
2822.571	708
2824.523	713
2826.474	685
2828.425	686
2830.375	696
2832.325	709
2834.275	722
2836.223	706
2838.172	713
2840.120	697
2842.067	737
2844.014	720
2845.960	768
2847.906	774
2849.851	784
2851.796	771
2853.740	808
2855.683	814
2857.627	848
2859.569	823
2861.511	866
2863.453	843
2865.394	831
2867.335	807
2869.275	837
2871.214	840
2873.153	851
2875.092	868
2877.030	849
2878.967	840
2880.904	819
2882.841	847
2884.777	814
2886.712	793
2888.647	805
2890.581	814
2892.515	788
2894.449	831
2896.382	823
2898.314	856
2900.246	849
2902.177	955
2904.108	978
2906.038	982
2907.968	1073
2909.897	1144
2911.826	1242
2913.755	1273
2915.682	1305
2917.610	1285
2919.536	1300
2921.463	1260
2923.388	1218
2925.313	1156
2927.238	1004
2929.162	1007
2931.086	996
2933.009	940
2934.932	855
2936.854	850
2938.776	881
2940.697	885
2942.618	877
2944.538	830
2946.457	867
2948.376	830
2950.295	822
2952.213	872
2954.131	845
2956.048	801
2957.964	834
2959.881	797
2961.796	801
2963.711	795
2965.626	775
2967.540	791
2969.453	804
2971.366	828
2973.279	845
2975.191	854
2977.103	880
2979.014	880
2980.924	897
2982.834	855
2984.744	854
2986.653	770
2988.561	811
2990.469	823
2992.377	801
2994.284	803
2996.190	818
2998.096	849
3000.002	876
3001.907	859
3003.811	881
3005.715	840
3007.619	818
3009.522	806
3011.424	858
3013.326	845
3015.228	871
3017.129	838
3019.029	876
3020.929	904
3022.829	918
3024.728	971
3026.626	1039
3028.524	1115
3030.422	1063
3032.319	1077
3034.215	1089
3036.111	1091
3038.007	1161
3039.902	1168
3041.797	1226
3043.691	1277
3045.584	1379
3047.477	1504
3049.370	1663
3051.262	1833
3053.153	1875
3055.044	1742
3056.935	1658
3058.825	1518
3060.714	1457
3062.604	1342
3064.492	1259
3066.380	1210
3068.268	1071
3070.155	1028
3072.041	982
3073.928	949
3075.813	879
3077.698	848
3079.583	846
3081.467	829
3083.351	786
3085.234	772
3087.116	796
3088.999	792
3090.880	748
3092.761	746
3094.642	762
3096.522	754
3098.402	738
3100.281	724
3102.160	719
3104.038	722
3105.916	733
3107.793	728
3109.670	706
3111.546	699
3113.422	703
3115.297	704
3117.172	703
3119.046	706
3120.920	691
3122.793	681
3124.666	682
3126.539	689
3128.410	668
3130.282	680
3132.153	717
3134.023	691
3135.893	676
3137.762	685
3139.631	673
3141.500	686
3143.368	672
3145.235	672
3147.102	696
3148.969	692
3150.835	679
3152.700	683
3154.565	698
3156.430	677
3158.294	696
3160.157	667
3162.020	719
3163.883	703
3165.745	717
3167.607	710
3169.468	701
3171.329	703
3173.189	688
3175.048	678
3176.908	679
3178.766	669
3180.625	667
3182.482	679
3184.340	668
3186.196	665
3188.053	672
3189.909	677
3191.764	671
3193.619	675
3195.473	647
3197.327	669
3199.181	697
3201.034	701
3202.886	704
3204.738	665
3206.589	686
3208.440	681
3210.291	683
3212.141	668
3213.991	670
3215.840	679
3217.688	660
3219.536	671
3221.384	647
3223.231	677
3225.078	650
3226.924	664
3228.770	684
3230.615	661
3232.460	655
3234.304	667
3236.148	669
3237.992	668
3239.834	661
3241.677	667
3243.519	648
3245.360	669
3247.201	664
3249.042	669
3250.882	659
3252.721	653
3254.560	652
3256.399	668
3258.237	665
3260.075	680
3261.912	659
3263.748	657
3265.585	644
3267.420	676
3269.256	671
3271.090	654
3272.925	661
3274.759	655
3276.592	658
3278.425	650
3280.257	660
3282.089	668
3283.921	666
3285.752	658
3287.582	666
3289.412	655
3291.242	660
3293.071	665
3294.899	657
3296.728	659
3298.555	657
3300.383	657
3302.209	662
3304.036	664
3305.861	652
3307.687	657
3309.512	666
3311.336	668
3313.160	644
3314.983	645
3316.806	641
3318.629	648
3320.451	665
3322.272	644
3324.094	641
3325.914	659
3327.734	666
3329.554	648
3331.373	653
3333.192	651

Frame 3
393.321	683
395.969	697
398.617	661
401.264	685
403.910	711
406.556	693
409.200	680
411.844	699
414.487	701
417.129	687
419.771	727
422.411	705
425.051	708
427.690	727
430.328	740
432.965	715
435.602	719
438.237	745
440.872	751
443.506	743
446.140	705
448.772	754
451.404	721
454.034	727
456.665	742
459.294	746
461.922	753
464.550	745
467.177	766
469.803	756
472.428	754
475.052	740
477.676	773
480.299	742
482.920	777
485.542	740
488.162	747
490.782	744
493.400	766
496.018	766
498.636	768
501.252	731
503.868	766
506.482	770
509.096	747
511.709	798
514.322	808
516.933	917
519.544	960
522.154	1050
524.763	1142
527.372	1048
529.979	956
532.586	814
535.192	797
537.797	775
540.402	784
543.005	765
545.608	772
548.210	738
550.812	755
553.412	764
556.012	723
558.611	742
561.209	741
563.806	739
566.402	724
568.998	732
571.593	739
574.187	729
576.780	748
579.373	737
581.965	756
584.556	728
587.146	746
589.735	749
592.324	729
594.912	734
597.499	751
600.085	770
602.670	751
605.255	746
607.839	776
610.422	797
613.004	783
615.586	823
618.167	864
620.747	896
623.326	913
625.904	912
628.482	868
631.059	868
633.635	798
636.210	786
638.784	779
641.358	769
643.931	783
646.503	734
649.074	746
651.645	787
654.215	748
656.784	765
659.352	766
661.920	774
664.486	791
667.052	745
669.617	762
672.182	741
674.745	703
677.308	735
679.870	728
682.431	747
684.992	728
687.552	760
690.110	742
692.669	758
695.226	740
697.783	741
700.338	739
702.893	758
705.448	745
708.001	733
710.554	722
713.106	774
715.657	736
718.208	762
720.757	745
723.306	755
725.854	754
728.402	749
730.948	789
733.494	790
736.039	769
738.583	763
741.127	782
743.670	778
746.212	764
748.753	735
751.293	763
753.833	734
756.372	739
758.910	791
761.448	766
763.984	789
766.520	751
769.055	738
771.589	813
774.123	777
776.656	840
779.188	934
781.719	1209
784.250	1572
786.779	1828
789.308	1827
791.837	1625
794.364	1220
796.891	892
799.417	834
801.942	822
804.467	794
806.990	823
809.513	818
812.035	808
814.557	797
817.077	799
819.597	819
822.116	817
824.635	781
827.152	764
829.669	763
832.185	751
834.701	760
837.215	776
839.729	770
842.242	771
844.755	768
847.266	761
849.777	779
852.287	758
854.797	756
857.305	769
859.813	743
862.320	776
864.826	746
867.332	730
869.837	748
872.341	751
874.844	739
877.347	748
879.849	768
882.350	742
884.850	755
887.350	721
889.848	737
892.347	727
894.844	784
897.340	763
899.836	750
902.331	758
904.826	768
907.319	736
909.812	760
912.304	735
914.796	736
917.286	747
919.776	760
922.265	746
924.754	713
927.242	749
929.728	740
932.215	759
934.700	738
937.185	762
939.669	774
942.152	745
944.634	755
947.116	743
949.597	743
952.077	752
954.557	736
957.036	770
959.514	744
961.991	735
964.468	760
966.943	758
969.418	776
971.893	797
974.366	792
976.839	777
979.311	778
981.783	785
984.254	779
986.724	790
989.193	827
991.661	840
994.129	922
996.596	1053
999.062	1574
1001.528	2216
1003.993	2534
1006.457	2580
1008.920	2077
1011.383	1309
1013.844	897
1016.306	802
1018.766	806
1021.226	820
1023.685	896
1026.143	1045
1028.600	1160
1031.057	1282
1033.513	1206
1035.968	1155
1038.423	891
1040.877	813
1043.330	768
1045.782	790
1048.234	745
1050.685	791
1053.135	756
1055.585	789
1058.033	757
1060.482	760
1062.929	742
1065.375	762
1067.821	760
1070.266	754
1072.711	769
1075.155	776
1077.598	737
1080.040	730
1082.481	759
1084.922	752
1087.362	727
1089.802	750
1092.240	768
1094.678	729
1097.115	746
1099.552	723
1101.988	742
1104.423	731
1106.857	787
1109.291	761
1111.723	736
1114.156	739
1116.587	739
1119.018	708
1121.448	764
1123.877	708
1126.306	772
1128.734	734
1131.161	770
1133.587	752
1136.013	750
1138.438	748
1140.862	765
1143.286	771
1145.709	789
1148.131	791
1150.552	813
1152.973	834
1155.393	908
1157.812	860
1160.231	882
1162.649	858
1165.066	813
1167.482	832
1169.898	801
1172.313	813
1174.727	834
1177.141	830
1179.554	855
1181.966	861
1184.377	813
1186.788	823
1189.198	774
1191.607	805
1194.016	800
1196.424	803
1198.831	855
1201.238	829
1203.644	938
1206.049	1065
1208.453	1201
1210.857	1235
1213.260	1211
1215.662	1070
1218.064	899
1220.464	770
1222.865	778
1225.264	764
1227.663	762
1230.061	743
1232.458	766
1234.855	745
1237.251	763
1239.646	778
1242.041	732
1244.434	782
1246.828	768
1249.220	771
1251.612	772
1254.003	757
1256.393	752
1258.783	744
1261.172	731
1263.560	773
1265.947	738
1268.334	741
1270.720	747
1273.106	728
1275.491	740
1277.875	732
1280.258	750
1282.641	747
1285.022	750
1287.404	733
1289.784	777
1292.164	727
1294.543	755
1296.922	760
1299.300	730
1301.677	734
1304.053	740
1306.429	730
1308.804	749
1311.178	751
1313.552	764
1315.925	741
1318.297	757
1320.668	767
1323.039	765
1325.409	780
1327.779	756
1330.148	787
1332.516	754
1334.883	742
1337.250	768
1339.616	774
1341.981	786
1344.346	760
1346.710	762
1349.073	747
1351.436	756
1353.797	760
1356.159	784
1358.519	778
1360.879	751
1363.238	763
1365.597	790
1367.954	773
1370.311	787
1372.668	823
1375.023	865
1377.378	901
1379.733	926
1382.086	924
1384.439	866
1386.792	849
1389.143	808
1391.494	794
1393.844	815
1396.194	765
1398.543	764
1400.891	794
1403.239	798
1405.585	788
1407.931	759
1410.277	753
1412.622	815
1414.966	768
1417.309	775
1419.652	780
1421.994	781
1424.335	774
1426.676	765
1429.016	773
1431.355	791
1433.694	795
1436.032	775
1438.369	785
1440.706	806
1443.042	782
1445.377	772
1447.712	811
1450.046	818
1452.379	806
1454.712	819
1457.044	809
1459.375	746
1461.705	779
1464.035	780
1466.364	778
1468.693	781
1471.021	781
1473.348	784
1475.675	816
1478.000	781
1480.326	785
1482.650	801
1484.974	765
1487.297	766
1489.619	791
1491.941	783
1494.262	760
1496.583	766
1498.903	798
1501.222	774
1503.540	772
1505.858	755
1508.175	757
1510.492	753
1512.807	780
1515.123	756
1517.437	757
1519.751	767
1522.064	797
1524.376	759
1526.688	776
1528.999	766
1531.310	742
1533.619	763
1535.929	793
1538.237	764
1540.545	776
1542.852	748
1545.158	774
1547.464	762
1549.769	741
1552.074	765
1554.378	766
1556.681	748
1558.983	773
1561.285	773
1563.586	777
1565.887	783
1568.187	784
1570.486	809
1572.784	790
1575.082	826
1577.379	855
1579.676	859
1581.972	909
1584.267	926
1586.561	936
1588.855	924
1591.149	874
1593.441	906
1595.733	900
1598.024	943
1600.315	947
1602.605	979
1604.894	1036
1607.183	1017
1609.471	958
1611.758	967
1614.045	913
1616.331	871
1618.616	816
1620.901	805
1623.185	833
1625.468	831
1627.751	787
1630.033	792
1632.314	783
1634.595	767
1636.875	741
1639.155	767
1641.434	753
1643.712	726
1645.989	758
1648.266	759
1650.542	761
1652.818	758
1655.093	767
1657.367	742
1659.641	731
1661.914	733
1664.186	763
1666.457	725
1668.728	764
1670.999	747
1673.269	751
1675.538	758
1677.806	777
1680.074	762
1682.341	759
1684.607	712
1686.873	740
1689.138	749
1691.403	746
1693.667	751
1695.930	751
1698.193	787
1700.455	762
1702.716	714
1704.976	751
1707.236	731
1709.496	742
1711.755	748
1714.013	740
1716.270	743
1718.527	737
1720.783	720
1723.038	768
1725.293	736
1727.548	753
1729.801	752
1732.054	741
1734.306	749
1736.558	769
1738.809	753
1741.059	736
1743.309	754
1745.558	743
1747.807	734
1750.054	720
1752.302	709
1754.548	727
1756.794	742
1759.039	730
1761.284	748
1763.528	739
1765.771	737
1768.014	734
1770.256	710
1772.497	737
1774.738	707
1776.978	729
1779.218	737
1781.457	724
1783.695	747
1785.933	719
1788.170	753
1790.406	772
1792.642	746
1794.877	731
1797.111	749
1799.345	760
1801.578	717
1803.811	737
1806.043	748
1808.274	745
1810.505	743
1812.735	735
1814.964	757
1817.193	739
1819.421	729
1821.648	730
1823.875	727
1826.101	754
1828.327	732
1830.552	729
1832.776	735
1835.000	744
1837.223	712
1839.445	765
1841.667	728
1843.888	746
1846.109	720
1848.329	717
1850.548	729
1852.767	723
1854.985	752
1857.202	739
1859.419	719
1861.635	716
1863.851	736
1866.066	699
1868.280	720
1870.494	749
1872.707	738
1874.919	735
1877.131	747
1879.342	737
1881.553	756
1883.763	728
1885.972	725
1888.181	752
1890.389	736
1892.596	733
1894.803	735
1897.009	729
1899.215	713
1901.420	712
1903.624	725
1905.828	738
1908.031	721
1910.233	706
1912.435	734
1914.636	745
1916.837	716
1919.037	740
1921.236	733
1923.435	723
1925.633	712
1927.831	722
1930.027	737
1932.224	733
1934.419	728
1936.614	732
1938.809	720
1941.003	725
1943.196	725
1945.388	742
1947.580	751
1949.772	725
1951.962	734
1954.152	707
1956.342	743
1958.531	727
1960.719	719
1962.907	738
1965.094	724
1967.280	713
1969.466	730
1971.651	706
1973.836	730
1976.020	698
1978.203	737
1980.386	731
1982.568	739
1984.749	729
1986.930	725
1989.111	740
1991.290	726
1993.469	723
1995.648	726
1997.826	725
2000.003	740
2002.179	718
2004.355	735
2006.531	721
2008.706	722
2010.880	717
2013.053	713
2015.226	735
2017.399	716
2019.570	715
2021.742	711
2023.912	720
2026.082	725
2028.251	740
2030.420	723
2032.588	734
2034.756	733
2036.923	701
2039.089	727
2041.255	720
2043.420	711
2045.584	716
2047.748	727
2049.911	716
2052.074	687
2054.236	752
2056.397	715
2058.558	717
2060.719	713
2062.878	722
2065.037	707
2067.196	723
2069.354	703
2071.511	702
2073.667	696
2075.823	716
2077.979	694
2080.134	711
2082.288	723
2084.442	733
2086.595	706
2088.747	717
2090.899	711
2093.050	712
2095.201	715
2097.351	705
2099.500	727
2101.649	701
2103.797	712
2105.945	709
2108.092	698
2110.238	705
2112.384	714
2114.529	705
2116.674	721
2118.818	722
2120.962	694
2123.104	711
2125.247	705
2127.388	718
2129.529	707
2131.670	714
2133.810	711
2135.949	706
2138.088	719
2140.226	705
2142.363	713
2144.500	707
2146.637	728
2148.772	690
2150.908	732
2153.042	727
2155.176	696
2157.309	718
2159.442	712
2161.574	709
2163.706	696
2165.837	715
2167.967	715
2170.097	703
2172.226	719
2174.355	694
2176.483	696
2178.611	725
2180.737	729
2182.864	696
2184.989	724
2187.114	711
2189.239	691
2191.363	695
2193.486	710
2195.609	716
2197.731	700
2199.853	718
2201.974	709
2204.094	718
2206.214	703
2208.333	717
2210.452	694
2212.570	684
2214.687	691
2216.804	686
2218.920	701
2221.036	711
2223.151	695
2225.266	691
2227.380	715
2229.493	717
2231.606	739
2233.718	719
2235.830	708
2237.941	681
2240.051	692
2242.161	727
2244.270	709
2246.379	712
2248.487	693
2250.595	723
2252.702	710
2254.808	705
2256.914	698
2259.019	725
2261.124	695
2263.228	718
2265.331	689
2267.434	706
2269.536	700
2271.638	714
2273.739	717
2275.840	705
2277.940	739
2280.039	706
2282.138	713
2284.236	676
2286.334	710
2288.431	694
2290.528	697
2292.624	703
2294.719	701
2296.814	701
2298.908	685
2301.002	717
2303.095	701
2305.187	716
2307.279	716
2309.371	695
2311.461	702
2313.552	708
2315.641	687
2317.730	707
2319.819	690
2321.907	711
2323.994	696
2326.081	706
2328.167	730
2330.253	704
2332.338	720
2334.422	695
2336.506	699
2338.589	696
2340.672	700
2342.754	698
2344.836	729
2346.917	704
2348.997	684
2351.077	694
2353.157	683
2355.235	713
2357.313	702
2359.391	675
2361.468	696
2363.545	730
2365.621	731
2367.696	704
2369.771	687
2371.845	691
2373.918	706
2375.992	728
2378.064	730
2380.136	681
2382.207	711
2384.278	712
2386.348	687
2388.418	723
2390.487	716
2392.556	703
2394.624	709
2396.691	695
2398.758	697
2400.824	714
2402.890	710
2404.955	704
2407.020	704
2409.084	725
2411.147	692
2413.210	695
2415.272	688
2417.334	696
2419.395	713
2421.456	710
2423.516	712
2425.575	698
2427.634	713
2429.693	698
2431.751	687
2433.808	699
2435.865	714
2437.921	708
2439.976	705
2442.031	706
2444.086	713
2446.140	674
2448.193	693
2450.246	706
2452.298	714
2454.350	691
2456.401	685
2458.451	681
2460.501	677
2462.551	700
2464.600	690
2466.648	691
2468.696	710
2470.743	666
2472.790	709
2474.836	692
2476.881	694
2478.926	717
2480.971	690
2483.014	704
2485.058	712
2487.101	680
2489.143	698
2491.184	697
2493.225	697
2495.266	686
2497.306	696
2499.345	692
2501.384	710
2503.423	692
2505.460	706
2507.498	708
2509.534	684
2511.570	671
2513.606	682
2515.641	705
2517.675	699
2519.709	698
2521.742	701
2523.775	689
2525.807	688
2527.839	710
2529.870	695
2531.901	688
2533.931	708
2535.960	716
2537.989	686
2540.018	703
2542.046	691
2544.073	719
2546.100	732
2548.126	703
2550.151	723
2552.176	720
2554.201	706
2556.225	710
2558.248	696
2560.271	696
2562.294	697
2564.316	697
2566.337	701
2568.357	686
2570.378	694
2572.397	725
2574.416	715
2576.435	720
2578.453	716
2580.470	723
2582.487	698
2584.503	708
2586.519	729
2588.535	699
2590.549	690
2592.563	714
2594.577	691
2596.590	686
2598.603	716
2600.615	677
2602.626	734
2604.637	708
2606.647	695
2608.657	717
2610.666	702
2612.675	727
2614.683	670
2616.691	698
2618.698	686
2620.705	715
2622.711	676
2624.716	696
2626.721	691
2628.726	689
2630.729	672
2632.733	697
2634.736	654
2636.738	684
2638.739	672
2640.741	673
2642.741	682
2644.741	707
2646.741	684
2648.740	687
2650.738	684
2652.736	698
2654.734	692
2656.731	697
2658.727	710
2660.723	676
2662.718	709
2664.713	678
2666.707	686
2668.701	696
2670.694	684
2672.686	697
2674.678	684
2676.670	677
2678.661	698
2680.651	694
2682.641	681
2684.630	696
2686.619	680
2688.608	668
2690.595	686
2692.583	707
2694.569	690
2696.555	701
2698.541	712
2700.526	689
2702.511	693
2704.495	704
2706.478	696
2708.461	694
2710.444	684
2712.426	707
2714.407	675
2716.388	681
2718.368	720
2720.348	669
2722.327	715
2724.306	726
2726.284	723
2728.262	714
2730.239	741
2732.215	755
2734.192	738
2736.167	740
2738.142	719
2740.117	734
2742.091	689
2744.064	704
2746.037	686
2748.009	694
2749.981	688
2751.952	675
2753.923	685
2755.893	681
2757.863	688
2759.832	696
2761.801	697
2763.769	694
2765.737	691
2767.704	688
2769.671	699
2771.637	696
2773.602	705
2775.567	691
2777.532	690
2779.496	705
2781.459	701
2783.422	706
2785.384	699
2787.346	713
2789.308	707
2791.268	702
2793.229	713
2795.189	694
2797.148	688
2799.107	679
2801.065	710
2803.022	699
2804.980	705
2806.936	677
2808.892	697
2810.848	681
2812.803	690
2814.758	701
2816.712	711
2818.665	688
2820.618	699
2822.571	723
2824.523	697
2826.474	707
2828.425	699
2830.375	720
2832.325	731
2834.275	716
2836.223	736
2838.172	717
2840.120	714
2842.067	746
2844.014	741
2845.960	778
2847.906	786
2849.851	749
2851.796	809
2853.740	765
2855.683	823
2857.627	838
2859.569	853
2861.511	876
2863.453	850
2865.394	893
2867.335	868
2869.275	839
2871.214	898
2873.153	825
2875.092	875
2877.030	819
2878.967	880
2880.904	834
2882.841	834
2884.777	804
2886.712	816
2888.647	813
2890.581	805
2892.515	840
2894.449	841
2896.382	843
2898.314	865
2900.246	888
2902.177	913
2904.108	1030
2906.038	1013
2907.968	1123
2909.897	1165
2911.826	1256
2913.755	1342
2915.682	1362
2917.610	1377
2919.536	1308
2921.463	1259
2923.388	1195
2925.313	1123
2927.238	1091
2929.162	1032
2931.086	994
2933.009	914
2934.932	879
2936.854	917
2938.776	861
2940.697	857
2942.618	848
2944.538	826
2946.457	849
2948.376	820
2950.295	850
2952.213	819
2954.131	807
2956.048	789
2957.964	795
2959.881	825
2961.796	802
2963.711	796
2965.626	768
2967.540	827
2969.453	801
2971.366	797
2973.279	825
2975.191	877
2977.103	887
2979.014	849
2980.924	905
2982.834	837
2984.744	858
2986.653	814
2988.561	813
2990.469	804
2992.377	813
2994.284	842
2996.190	849
2998.096	851
3000.002	881
3001.907	878
3003.811	854
3005.715	860
3007.619	868
3009.522	822
3011.424	852
3013.326	853
3015.228	856
3017.129	906
3019.029	902
3020.929	941
3022.829	967
3024.728	981
3026.626	1054
3028.524	1036
3030.422	1101
3032.319	1164
3034.215	1124
3036.111	1117
3038.007	1167
3039.902	1218
3041.797	1222
3043.691	1300
3045.584	1418
3047.477	1643
3049.370	1729
3051.262	1779
3053.153	1792
3055.044	1815
3056.935	1714
3058.825	1625
3060.714	1453
3062.604	1429
3064.492	1317
3066.380	1262
3068.268	1166
3070.155	1101
3072.041	1041
3073.928	914
3075.813	919
3077.698	859
3079.583	829
3081.467	817
3083.351	805
3085.234	800
3087.116	796
3088.999	765
3090.880	752
3092.761	727
3094.642	745
3096.522	714
3098.402	737
3100.281	749
3102.160	745
3104.038	706
3105.916	729
3107.793	697
3109.670	745
3111.546	713
3113.422	705
3115.297	704
3117.172	687
3119.046	692
3120.920	673
3122.793	702
3124.666	689
3126.539	681
3128.410	702
3130.282	685
3132.153	690
3134.023	684
3135.893	681
3137.762	698
3139.631	681
3141.500	682
3143.368	660
3145.235	670
3147.102	713
3148.969	677
3150.835	678
3152.700	677
3154.565	686
3156.430	689
3158.294	677
3160.157	726
3162.020	718
3163.883	715
3165.745	705
3167.607	723
3169.468	695
3171.329	675
3173.189	670
3175.048	703
3176.908	654
3178.766	688
3180.625	682
3182.482	672
3184.340	653
3186.196	666
3188.053	684
3189.909	661
3191.764	669
3193.619	678
3195.473	676
3197.327	681
3199.181	675
3201.034	693
3202.886	678
3204.738	692
3206.589	677
3208.440	658
3210.291	678
3212.141	687
3213.991	683
3215.840	690
3217.688	661
3219.536	671
3221.384	668
3223.231	678
3225.078	664
3226.924	646
3228.770	653
3230.615	663
3232.460	654
3234.304	656
3236.148	636
3237.992	669
3239.834	665
3241.677	663
3243.519	652
3245.360	668
3247.201	650
3249.042	641
3250.882	635
3252.721	672
3254.560	643
3256.399	677
3258.237	660
3260.075	664
3261.912	656
3263.748	657
3265.585	673
3267.420	665
3269.256	679
3271.090	659
3272.925	667
3274.759	658
3276.592	658
3278.425	657
3280.257	662
3282.089	645
3283.921	661
3285.752	648
3287.582	660
3289.412	677
3291.242	659
3293.071	655
3294.899	669
3296.728	649
3298.555	664
3300.383	653
3302.209	644
3304.036	674
3305.861	679
3307.687	654
3309.512	666
3311.336	680
3313.160	641
3314.983	654
3316.806	645
3318.629	670
3320.451	666
3322.272	666
3324.094	669
3325.914	648
3327.734	670
3329.554	672
3331.373	658
3333.192	656

Frame 4
393.321	685
395.969	680
398.617	686
401.264	705
403.910	679
406.556	706
409.200	711
411.844	707
414.487	705
417.129	751
419.771	704
422.411	720
425.051	737
427.690	711
430.328	727
432.965	733
435.602	742
438.237	741
440.872	717
443.506	759
446.140	756
448.772	737
451.404	757
454.034	740
456.665	739
459.294	765
461.922	778
464.550	775
467.177	778
469.803	758
472.428	775
475.052	770
477.676	744
480.299	803
482.920	734
485.542	782
488.162	751
490.782	741
493.400	751
496.018	764
498.636	766
501.252	756
503.868	747
506.482	788
509.096	757
511.709	770
514.322	796
516.933	901
519.544	970
522.154	1066
524.763	1063
527.372	1060
529.979	982
532.586	862
535.192	800
537.797	790
540.402	784
543.005	745
545.608	768
548.210	771
550.812	748
553.412	756
556.012	752
558.611	739
561.209	734
563.806	759
566.402	741
568.998	793
571.593	747
574.187	763
576.780	741
579.373	751
581.965	736
584.556	729
587.146	731
589.735	743
592.324	753
594.912	763
597.499	754
600.085	743
602.670	740
605.255	767
607.839	771
610.422	773
613.004	777
615.586	874
618.167	877
620.747	871
623.326	934
625.904	906
628.482	904
631.059	865
633.635	830
636.210	803
638.784	774
641.358	762
643.931	760
646.503	761
649.074	741
651.645	737
654.215	763
656.784	766
659.352	743
661.920	749
664.486	742
667.052	745
669.617	741
672.182	745
674.745	747
677.308	750
679.870	772
682.431	751
684.992	738
687.552	747
690.110	755
692.669	743
695.226	756
697.783	738
700.338	755
702.893	726
705.448	783
708.001	759
710.554	728
713.106	768
715.657	744
718.208	755
720.757	773
723.306	771
725.854	732
728.402	757
730.948	776
733.494	802
736.039	778
738.583	782
741.127	774
743.670	744
746.212	775
748.753	782
751.293	748
753.833	754
756.372	742
758.910	762
761.448	785
763.984	777
766.520	774
769.055	763
771.589	795
774.123	787
776.656	833
779.188	933
781.719	1228
784.250	1624
786.779	1787
789.308	1754
791.837	1647
794.364	1247
796.891	919
799.417	811
801.942	783
804.467	829
806.990	787
809.513	814
812.035	830
814.557	782
817.077	793
819.597	772
822.116	784
824.635	766
827.152	757
829.669	758
832.185	781
834.701	764
837.215	779
839.729	818
842.242	795
844.755	806
847.266	776
849.777	760
852.287	763
854.797	754
857.305	743
859.813	766
862.320	742
864.826	764
867.332	752
869.837	747
872.341	734
874.844	756
877.347	751
879.849	758
882.350	785
884.850	731
887.350	748
889.848	774
892.347	772
894.844	785
897.340	750
899.836	749
902.331	762
904.826	727
907.319	725
909.812	745
912.304	754
914.796	746
917.286	713
919.776	739
922.265	745
924.754	722
927.242	733
929.728	752
932.215	768
934.700	745
937.185	705
939.669	746
942.152	739
944.634	738
947.116	748
949.597	741
952.077	746
954.557	742
957.036	770
959.514	749
961.991	760
964.468	751
966.943	786
969.418	761
971.893	802
974.366	787
976.839	752
979.311	799
981.783	761
984.254	783
986.724	809
989.193	817
991.661	889
994.129	903
996.596	1092
999.062	1679
1001.528	2113
1003.993	2517
1006.457	2474
1008.920	2145
1011.383	1283
1013.844	954
1016.306	845
1018.766	812
1021.226	817
1023.685	888
1026.143	980
1028.600	1186
1031.057	1243
1033.513	1288
1035.968	1147
1038.423	897
1040.877	825
1043.330	747
1045.782	760
1048.234	742
1050.685	745
1053.135	794
1055.585	731
1058.033	789
1060.482	748
1062.929	727
1065.375	754
1067.821	758
1070.266	739
1072.711	764
1075.155	740
1077.598	749
1080.040	723
1082.481	768
1084.922	754
1087.362	759
1089.802	760
1092.240	743
1094.678	771
1097.115	748
1099.552	755
1101.988	721
1104.423	759
1106.857	736
1109.291	758
1111.723	732
1114.156	730
1116.587	740
1119.018	717
1121.448	742
1123.877	740
1126.306	740
1128.734	762
1131.161	766
1133.587	753
1136.013	727
1138.438	774
1140.862	785
1143.286	741
1145.709	793
1148.131	796
1150.552	849
1152.973	826
1155.393	848
1157.812	895
1160.231	862
1162.649	859
1165.066	814
1167.482	788
1169.898	816
1172.313	786
1174.727	875
1177.141	866
1179.554	860
1181.966	855
1184.377	840
1186.788	837
1189.198	823
1191.607	805
1194.016	819
1196.424	790
1198.831	787
1201.238	838
1203.644	944
1206.049	1016
1208.453	1126
1210.857	1219
1213.260	1206
1215.662	1029
1218.064	893
1220.464	821
1222.865	780
1225.264	744
1227.663	746
1230.061	751
1232.458	762
1234.855	745
1237.251	742
1239.646	737
1242.041	742
1244.434	743
1246.828	753
1249.220	765
1251.612	759
1254.003	766
1256.393	780
1258.783	748
1261.172	733
1263.560	758
1265.947	754
1268.334	774
1270.720	720
1273.106	744
1275.491	754
1277.875	739
1280.258	764
1282.641	723
1285.022	766
1287.404	760
1289.784	753
1292.164	749
1294.543	739
1296.922	765
1299.300	773
1301.677	758
1304.053	764
1306.429	733
1308.804	783
1311.178	744
1313.552	767
1315.925	740
1318.297	766
1320.668	768
1323.039	763
1325.409	756
1327.779	771
1330.148	756
1332.516	799
1334.883	762
1337.250	798
1339.616	762
1341.981	793
1344.346	758
1346.710	746
1349.073	754
1351.436	752
1353.797	750
1356.159	760
1358.519	776
1360.879	764
1363.238	788
1365.597	809
1367.954	786
1370.311	817
1372.668	846
1375.023	891
1377.378	913
1379.733	947
1382.086	937
1384.439	853
1386.792	815
1389.143	836
1391.494	790
1393.844	797
1396.194	737
1398.543	764
1400.891	773
1403.239	780
1405.585	784
1407.931	776
1410.277	803
1412.622	783
1414.966	798
1417.309	785
1419.652	782
1421.994	786
1424.335	798
1426.676	808
1429.016	798
1431.355	751
1433.694	817
1436.032	825
1438.369	791
1440.706	770
1443.042	803
1445.377	788
1447.712	807
1450.046	806
1452.379	773
1454.712	791
1457.044	786
1459.375	794
1461.705	783
1464.035	773
1466.364	826
1468.693	792
1471.021	792
1473.348	749
1475.675	793
1478.000	783
1480.326	764
1482.650	772
1484.974	773
1487.297	776
1489.619	764
1491.941	774
1494.262	782
1496.583	788
1498.903	767
1501.222	765
1503.540	775
1505.858	753
1508.175	766
1510.492	763
1512.807	796
1515.123	766
1517.437	780
1519.751	776
1522.064	793
1524.376	772
1526.688	778
1528.999	766
1531.310	764
1533.619	749
1535.929	743
1538.237	770
1540.545	766
1542.852	739
1545.158	729
1547.464	781
1549.769	757
1552.074	771
1554.378	771
1556.681	743
1558.983	776
1561.285	798
1563.586	795
1565.887	773
1568.187	800
1570.486	815
1572.784	806
1575.082	839
1577.379	857
1579.676	890
1581.972	858
1584.267	922
1586.561	918
1588.855	944
1591.149	920
1593.441	875
1595.733	889
1598.024	929
1600.315	965
1602.605	1040
1604.894	977
1607.183	1018
1609.471	1001
1611.758	901
1614.045	836
1616.331	827
1618.616	829
1620.901	835
1623.185	801
1625.468	808
1627.751	781
1630.033	811
1632.314	807
1634.595	805
1636.875	760
1639.155	799
1641.434	760
1643.712	756
1645.989	775
1648.266	751
1650.542	755
1652.818	737
1655.093	753
1657.367	723
1659.641	744
1661.914	742
1664.186	744
1666.457	773
1668.728	745
1670.999	746
1673.269	753
1675.538	773
1677.806	742
1680.074	781
1682.341	728
1684.607	740
1686.873	724
1689.138	747
1691.403	723
1693.667	728
1695.930	769
1698.193	757
1700.455	741
1702.716	746
1704.976	740
1707.236	750
1709.496	756
1711.755	753
1714.013	772
1716.270	734
1718.527	739
1720.783	747
1723.038	732
1725.293	743
1727.548	734
1729.801	750
1732.054	762
1734.306	755
1736.558	746
1738.809	727
1741.059	751
1743.309	731
1745.558	762
1747.807	725
1750.054	726
1752.302	728
1754.548	742
1756.794	742
1759.039	751
1761.284	742
1763.528	741
1765.771	738
1768.014	753
1770.256	749
1772.497	721
1774.738	721
1776.978	732
1779.218	735
1781.457	750
1783.695	727
1785.933	737
1788.170	731
1790.406	753
1792.642	756
1794.877	719
1797.111	766
1799.345	728
1801.578	732
1803.811	736
1806.043	732
1808.274	717
1810.505	745
1812.735	753
1814.964	740
1817.193	740
1819.421	727
1821.648	730
1823.875	733
1826.101	747
1828.327	751
1830.552	731
1832.776	728
1835.000	740
1837.223	730
1839.445	731
1841.667	716
1843.888	730
1846.109	719
1848.329	735
1850.548	723
1852.767	714
1854.985	724
1857.202	765
1859.419	730
1861.635	723
1863.851	743
1866.066	722
1868.280	720
1870.494	734
1872.707	705
1874.919	704
1877.131	749
1879.342	737
1881.553	724
1883.763	726
1885.972	710
1888.181	731
1890.389	730
1892.596	731
1894.803	744
1897.009	731
1899.215	708
1901.420	742
1903.624	745
1905.828	724
1908.031	745
1910.233	756
1912.435	725
1914.636	728
1916.837	734
1919.037	758
1921.236	704
1923.435	738
1925.633	728
1927.831	710
1930.027	745
1932.224	726
1934.419	731
1936.614	732
1938.809	734
1941.003	716
1943.196	736
1945.388	705
1947.580	756
1949.772	722
1951.962	731
1954.152	736
1956.342	730
1958.531	727
1960.719	736
1962.907	729
1965.094	710
1967.280	711
1969.466	718
1971.651	724
1973.836	745
1976.020	707
1978.203	714
1980.386	720
1982.568	724
1984.749	726
1986.930	739
1989.111	739
1991.290	723
1993.469	714
1995.648	731
1997.826	731
2000.003	706
2002.179	736
2004.355	730
2006.531	739
2008.706	733
2010.880	720
2013.053	734
2015.226	722
2017.399	713
2019.570	730
2021.742	726
2023.912	723
2026.082	727
2028.251	719
2030.420	728
2032.588	721
2034.756	726
2036.923	713
2039.089	708
2041.255	742
2043.420	745
2045.584	720
2047.748	725
2049.911	731
2052.074	736
2054.236	731
2056.397	722
2058.558	745
2060.719	701
2062.878	715
2065.037	713
2067.196	716
2069.354	726
2071.511	721
2073.667	705
2075.823	721
2077.979	724
2080.134	693
2082.288	699
2084.442	702
2086.595	717
2088.747	716
2090.899	712
2093.050	723
2095.201	705
2097.351	717
2099.500	717
2101.649	714
2103.797	719
2105.945	713
2108.092	723
2110.238	709
2112.384	715
2114.529	709
2116.674	709
2118.818	735
2120.962	699
2123.104	700
2125.247	697
2127.388	715
2129.529	711
2131.670	709
2133.810	697
2135.949	743
2138.088	716
2140.226	719
2142.363	713
2144.500	730
2146.637	694
2148.772	711
2150.908	709
2153.042	706
2155.176	701
2157.309	704
2159.442	722
2161.574	717
2163.706	708
2165.837	717
2167.967	713
2170.097	698
2172.226	698
2174.355	709
2176.483	707
2178.611	722
2180.737	723
2182.864	698
2184.989	744
2187.114	703
2189.239	725
2191.363	706
2193.486	715
2195.609	700
2197.731	732
2199.853	701
2201.974	709
2204.094	704
2206.214	728
2208.333	722
2210.452	711
2212.570	726
2214.687	704
2216.804	723
2218.920	715
2221.036	711
2223.151	716
2225.266	681
2227.380	728
2229.493	733
2231.606	713
2233.718	713
2235.830	716
2237.941	688
2240.051	713
2242.161	710
2244.270	701
2246.379	697
2248.487	702
2250.595	722
2252.702	705
2254.808	719
2256.914	722
2259.019	711
2261.124	708
2263.228	731
2265.331	718
2267.434	707
2269.536	719
2271.638	723
2273.739	716
2275.840	710
2277.940	725
2280.039	688
2282.138	699
2284.236	691
2286.334	716
2288.431	703
2290.528	704
2292.624	705
2294.719	693
2296.814	689
2298.908	688
2301.002	690
2303.095	712
2305.187	721
2307.279	712
2309.371	708
2311.461	697
2313.552	732
2315.641	699
2317.730	685
2319.819	697
2321.907	697
2323.994	704
2326.081	709
2328.167	711
2330.253	699
2332.338	683
2334.422	741
2336.506	707
2338.589	712
2340.672	703
2342.754	703
2344.836	673
2346.917	687
2348.997	695
2351.077	722
2353.157	675
2355.235	700
2357.313	697
2359.391	709
2361.468	737
2363.545	717
2365.621	714
2367.696	709
2369.771	707
2371.845	686
2373.918	672
2375.992	695
2378.064	712
2380.136	717
2382.207	699
2384.278	707
2386.348	707
2388.418	685
2390.487	712
2392.556	699
2394.624	692
2396.691	689
2398.758	666
2400.824	694
2402.890	689
2404.955	707
2407.020	708
2409.084	736
2411.147	696
2413.210	729
2415.272	687
2417.334	718
2419.395	703
2421.456	703
2423.516	716
2425.575	732
2427.634	687
2429.693	713
2431.751	672
2433.808	711
2435.865	717
2437.921	681
2439.976	706
2442.031	694
2444.086	718
2446.140	685
2448.193	706
2450.246	690
2452.298	676
2454.350	691
2456.401	706
2458.451	717
2460.501	700
2462.551	702
2464.600	691
2466.648	699
2468.696	703
2470.743	699
2472.790	691
2474.836	682
2476.881	675
2478.926	695
2480.971	698
2483.014	686
2485.058	686
2487.101	713
2489.143	701
2491.184	722
2493.225	688
2495.266	694
2497.306	694
2499.345	692
2501.384	707
2503.423	696
2505.460	698
2507.498	683
2509.534	687
2511.570	731
2513.606	688
2515.641	695
2517.675	688
2519.709	692
2521.742	702
2523.775	712
2525.807	702
2527.839	718
2529.870	696
2531.901	696
2533.931	705
2535.960	709
2537.989	690
2540.018	707
2542.046	706
2544.073	693
2546.100	685
2548.126	706
2550.151	723
2552.176	704
2554.201	690
2556.225	698
2558.248	694
2560.271	712
2562.294	704
2564.316	718
2566.337	713
2568.357	706
2570.378	686
2572.397	725
2574.416	704
2576.435	700
2578.453	732
2580.470	728
2582.487	709
2584.503	679
2586.519	727
2588.535	730
2590.549	708
2592.563	674
2594.577	707
2596.590	735
2598.603	686
2600.615	693
2602.626	720
2604.637	690
2606.647	700
2608.657	704
2610.666	719
2612.675	724
2614.683	715
2616.691	691
2618.698	701
2620.705	677
2622.711	681
2624.716	685
2626.721	699
2628.726	677
2630.729	692
2632.733	685
2634.736	712
2636.738	713
2638.739	689
2640.741	697
2642.741	692
2644.741	688
2646.741	697
2648.740	699
2650.738	705
2652.736	707
2654.734	697
2656.731	706
2658.727	705
2660.723	694
2662.718	697
2664.713	695
2666.707	712
2668.701	679
2670.694	705
2672.686	708
2674.678	686
2676.670	704
2678.661	682
2680.651	661
2682.641	700
2684.630	684
2686.619	671
2688.608	696
2690.595	708
2692.583	704
2694.569	672
2696.555	696
2698.541	715
2700.526	694
2702.511	678
2704.495	692
2706.478	692
2708.461	693
2710.444	696
2712.426	679
2714.407	721
2716.388	681
2718.368	696
2720.348	697
2722.327	721
2724.306	726
2726.284	731
2728.262	728
2730.239	743
2732.215	732
2734.192	717
2736.167	773
2738.142	732
2740.117	729
2742.091	704
2744.064	709
2746.037	695
2748.009	702
2749.981	692
2751.952	695
2753.923	682
2755.893	705
2757.863	689
2759.832	712
2761.801	679
2763.769	715
2765.737	687
2767.704	701
2769.671	710
2771.637	694
2773.602	686
2775.567	686
2777.532	697
2779.496	689
2781.459	702
2783.422	696
2785.384	701
2787.346	690
2789.308	686
2791.268	691
2793.229	673
2795.189	682
2797.148	689
2799.107	694
2801.065	703
2803.022	688
2804.980	697
2806.936	703
2808.892	690
2810.848	677
2812.803	673
2814.758	706
2816.712	713
2818.665	709
2820.618	702
2822.571	702
2824.523	691
2826.474	683
2828.425	715
2830.375	707
2832.325	720
2834.275	721
2836.223	712
2838.172	741
2840.120	721
2842.067	713
2844.014	761
2845.960	752
2847.906	790
2849.851	767
2851.796	766
2853.740	839
2855.683	823
2857.627	859
2859.569	841
2861.511	866
2863.453	889
2865.394	928
2867.335	874
2869.275	841
2871.214	853
2873.153	873
2875.092	828
2877.030	823
2878.967	827
2880.904	869
2882.841	808
2884.777	840
2886.712	803
2888.647	841
2890.581	788
2892.515	807
2894.449	820
2896.382	869
2898.314	895
2900.246	893
2902.177	933
2904.108	970
2906.038	1061
2907.968	1094
2909.897	1140
2911.826	1292
2913.755	1276
2915.682	1301
2917.610	1361
2919.536	1294
2921.463	1293
2923.388	1183
2925.313	1129
2927.238	1112
2929.162	990
2931.086	1005
2933.009	950
2934.932	905
2936.854	878
2938.776	895
2940.697	903
2942.618	878
2944.538	887
2946.457	829
2948.376	879
2950.295	857
2952.213	835
2954.131	833
2956.048	830
2957.964	827
2959.881	825
2961.796	794
2963.711	805
2965.626	808
2967.540	819
2969.453	830
2971.366	837
2973.279	869
2975.191	869
2977.103	870
2979.014	919
2980.924	900
2982.834	869
2984.744	826
2986.653	835
2988.561	797
2990.469	793
2992.377	805
2994.284	828
2996.190	846
2998.096	823
3000.002	856
3001.907	897
3003.811	878
3005.715	827
3007.619	864
3009.522	863
3011.424	830
3013.326	850
3015.228	849
3017.129	905
3019.029	902
3020.929	890
3022.829	972
3024.728	938
3026.626	1036
3028.524	1010
3030.422	1092
3032.319	1119
3034.215	1102
3036.111	1127
3038.007	1162
3039.902	1198
3041.797	1243
3043.691	1357
3045.584	1388
3047.477	1578
3049.370	1798
3051.262	1799
3053.153	1915
3055.044	1855
3056.935	1683
3058.825	1587
3060.714	1462
3062.604	1399
3064.492	1408
3066.380	1248
3068.268	1170
3070.155	1078
3072.041	981
3073.928	944
3075.813	910
3077.698	846
3079.583	826
3081.467	811
3083.351	803
3085.234	783
3087.116	744
3088.999	813
3090.880	776
3092.761	742
3094.642	752
3096.522	738
3098.402	726
3100.281	746
3102.160	731
3104.038	717
3105.916	700
3107.793	720
3109.670	735
3111.546	755
3113.422	707
3115.297	675
3117.172	708
3119.046	695
3120.920	682
3122.793	703
3124.666	697
3126.539	683
3128.410	681
3130.282	703
3132.153	668
3134.023	692
3135.893	694
3137.762	694
3139.631	700
3141.500	683
3143.368	697
3145.235	682
3147.102	708
3148.969	679
3150.835	703
3152.700	681
3154.565	669
3156.430	694
3158.294	651
3160.157	694
3162.020	678
3163.883	721
3165.745	701
3167.607	702
3169.468	707
3171.329	686
3173.189	672
3175.048	688
3176.908	660
3178.766	687
3180.625	673
3182.482	674
3184.340	665
3186.196	688
3188.053	663
3189.909	696
3191.764	679
3193.619	677
3195.473	704
3197.327	682
3199.181	669
3201.034	665
3202.886	689
3204.738	694
3206.589	688
3208.440	684
3210.291	679
3212.141	667
3213.991	696
3215.840	653
3217.688	653
3219.536	666
3221.384	689
3223.231	684
3225.078	654
3226.924	682
3228.770	662
3230.615	657
3232.460	686
3234.304	660
3236.148	674
3237.992	654
3239.834	658
3241.677	655
3243.519	676
3245.360	663
3247.201	664
3249.042	657
3250.882	664
3252.721	653
3254.560	669
3256.399	648
3258.237	659
3260.075	666
3261.912	656
3263.748	660
3265.585	663
3267.420	670
3269.256	668
3271.090	657
3272.925	640
3274.759	640
3276.592	652
3278.425	668
3280.257	658
3282.089	659
3283.921	642
3285.752	663
3287.582	653
3289.412	668
3291.242	652
3293.071	647
3294.899	668
3296.728	654
3298.555	656
3300.383	647
3302.209	654
3304.036	667
3305.861	668
3307.687	669
3309.512	657
3311.336	648
3313.160	646
3314.983	653
3316.806	657
3318.629	656
3320.451	667
3322.272	660
3324.094	675
3325.914	669
3327.734	646
3329.554	643
3331.373	665
3333.192	650

Frame 5
393.321	650
395.969	666
398.617	672
401.264	684
403.910	724
406.556	710
409.200	676
411.844	706
414.487	707
417.129	711
419.771	685
422.411	728
425.051	698
427.690	710
430.328	720
432.965	734
435.602	730
438.237	749
440.872	747
443.506	760
446.140	733
448.772	750
451.404	754
454.034	707
456.665	751
459.294	739
461.922	724
464.550	747
467.177	772
469.803	779
472.428	757
475.052	733
477.676	754
480.299	740
482.920	742
485.542	745
488.162	733
490.782	764
493.400	735
496.018	749
498.636	758
501.252	773
503.868	753
506.482	753
509.096	773
511.709	787
514.322	809
516.933	831
519.544	994
522.154	1072
524.763	1098
527.372	1094
529.979	923
532.586	800
535.192	784
537.797	776
540.402	765
543.005	788
545.608	763
548.210	785
550.812	752
553.412	752
556.012	728
558.611	735
561.209	726
563.806	731
566.402	752
568.998	767
571.593	756
574.187	702
576.780	723
579.373	758
581.965	753
584.556	730
587.146	761
589.735	747
592.324	758
594.912	742
597.499	747
600.085	751
602.670	756
605.255	745
607.839	787
610.422	755
613.004	783
615.586	807
618.167	836
620.747	870
623.326	920
625.904	881
628.482	875
631.059	841
633.635	818
636.210	791
638.784	791
641.358	741
643.931	783
646.503	747
649.074	751
651.645	735
654.215	739
656.784	752
659.352	740
661.920	737
664.486	752
667.052	755
669.617	755
672.182	749
674.745	764
677.308	748
679.870	735
682.431	750
684.992	721
687.552	759
690.110	737
692.669	762
695.226	758
697.783	758
700.338	756
702.893	734
705.448	723
708.001	751
710.554	743
713.106	727
715.657	757
718.208	746
720.757	753
723.306	764
725.854	767
728.402	742
730.948	748
733.494	790
736.039	806
738.583	772
741.127	784
743.670	775
746.212	757
748.753	753
751.293	753
753.833	746
756.372	755
758.910	760
761.448	758
763.984	793
766.520	762
769.055	792
771.589	790
774.123	784
776.656	863
779.188	902
781.719	1208
784.250	1510
786.779	1718
789.308	1804
791.837	1670
794.364	1182
796.891	907
799.417	825
801.942	791
804.467	770
806.990	777
809.513	836
812.035	816
814.557	792
817.077	791
819.597	814
822.116	766
824.635	766
827.152	758
829.669	746
832.185	748
834.701	746
837.215	787
839.729	785
842.242	773
844.755	781
847.266	764
849.777	763
852.287	755
854.797	735
857.305	795
859.813	746
862.320	750
864.826	770
867.332	717
869.837	713
872.341	726
874.844	760
877.347	758
879.849	773
882.350	750
884.850	748
887.350	739
889.848	752
892.347	778
894.844	778
897.340	770
899.836	790
902.331	751
904.826	746
907.319	773
909.812	735
912.304	747
914.796	758
917.286	745
919.776	769
922.265	726
924.754	733
927.242	768
929.728	779
932.215	729
934.700	760
937.185	762
939.669	753
942.152	746
944.634	760
947.116	750
949.597	746
952.077	750
954.557	754
957.036	752
959.514	747
961.991	735
964.468	767
966.943	766
969.418	780
971.893	791
974.366	782
976.839	783
979.311	775
981.783	782
984.254	769
986.724	806
989.193	835
991.661	882
994.129	880
996.596	1071
999.062	1626
1001.528	2138
1003.993	2431
1006.457	2425
1008.920	2153
1011.383	1260
1013.844	905
1016.306	834
1018.766	792
1021.226	833
1023.685	864
1026.143	1036
1028.600	1166
1031.057	1192
1033.513	1222
1035.968	1102
1038.423	922
1040.877	799
1043.330	776
1045.782	765
1048.234	739
1050.685	751
1053.135	739
1055.585	754
1058.033	767
1060.482	764
1062.929	782
1065.375	767
1067.821	748
1070.266	741
1072.711	748
1075.155	743
1077.598	735
1080.040	769
1082.481	771
1084.922	764
1087.362	732
1089.802	721
1092.240	756
1094.678	765
1097.115	738
1099.552	751
1101.988	755
1104.423	742
1106.857	737
1109.291	776
1111.723	754
1114.156	722
1116.587	730
1119.018	761
1121.448	749
1123.877	762
1126.306	738
1128.734	730
1131.161	752
1133.587	786
1136.013	763
1138.438	764
1140.862	773
1143.286	744
1145.709	780
1148.131	802
1150.552	834
1152.973	831
1155.393	835
1157.812	871
1160.231	859
1162.649	839
1165.066	838
1167.482	788
1169.898	798
1172.313	787
1174.727	824
1177.141	857
1179.554	876
1181.966	808
1184.377	833
1186.788	830
1189.198	802
1191.607	811
1194.016	793
1196.424	779
1198.831	876
1201.238	840
1203.644	917
1206.049	1052
1208.453	1152
1210.857	1191
1213.260	1183
1215.662	1052
1218.064	907
1220.464	818
1222.865	780
1225.264	778
1227.663	783
1230.061	761
1232.458	780
1234.855	771
1237.251	767
1239.646	728
1242.041	755
1244.434	769
1246.828	793
1249.220	743
1251.612	755
1254.003	756
1256.393	751
1258.783	756
1261.172	767
1263.560	748
1265.947	742
1268.334	751
1270.720	759
1273.106	772
1275.491	766
1277.875	753
1280.258	749
1282.641	742
1285.022	734
1287.404	746
1289.784	751
1292.164	751
1294.543	795
1296.922	748
1299.300	738
1301.677	734
1304.053	741
1306.429	776
1308.804	726
1311.178	777
1313.552	767
1315.925	727
1318.297	758
1320.668	750
1323.039	766
1325.409	789
1327.779	771
1330.148	798
1332.516	774
1334.883	753
1337.250	764
1339.616	779
1341.981	745
1344.346	799
1346.710	766
1349.073	760
1351.436	781
1353.797	765
1356.159	775
1358.519	767
1360.879	777
1363.238	783
1365.597	787
1367.954	777
1370.311	781
1372.668	844
1375.023	843
1377.378	939
1379.733	924
1382.086	904
1384.439	914
1386.792	828
1389.143	794
1391.494	785
1393.844	755
1396.194	790
1398.543	769
1400.891	789
1403.239	749
1405.585	742
1407.931	769
1410.277	816
1412.622	796
1414.966	762
1417.309	799
1419.652	783
1421.994	801
1424.335	795
1426.676	769
1429.016	789
1431.355	789
1433.694	779
1436.032	806
1438.369	829
1440.706	810
1443.042	776
1445.377	802
1447.712	812
1450.046	797
1452.379	788
1454.712	797
1457.044	830
1459.375	804
1461.705	811
1464.035	790
1466.364	746
1468.693	775
1471.021	790
1473.348	769
1475.675	795
1478.000	766
1480.326	792
1482.650	771
1484.974	789
1487.297	776
1489.619	792
1491.941	807
1494.262	772
1496.583	784
1498.903	776
1501.222	750
1503.540	773
1505.858	784
1508.175	775
1510.492	737
1512.807	751
1515.123	761
1517.437	762
1519.751	758
1522.064	765
1524.376	749
1526.688	746
1528.999	759
1531.310	746
1533.619	766
1535.929	776
1538.237	774
1540.545	784
1542.852	754
1545.158	753
1547.464	765
1549.769	796
1552.074	762
1554.378	756
1556.681	784
1558.983	781
1561.285	788
1563.586	780
1565.887	756
1568.187	768
1570.486	796
1572.784	804
1575.082	812
1577.379	849
1579.676	859
1581.972	923
1584.267	913
1586.561	927
1588.855	892
1591.149	884
1593.441	882
1595.733	896
1598.024	974
1600.315	968
1602.605	998
1604.894	1044
1607.183	1033
1609.471	963
1611.758	898
1614.045	889
1616.331	833
1618.616	828
1620.901	801
1623.185	802
1625.468	808
1627.751	789
1630.033	796
1632.314	771
1634.595	780
1636.875	773
1639.155	779
1641.434	728
1643.712	737
1645.989	729
1648.266	760
1650.542	776
1652.818	760
1655.093	761
1657.367	747
1659.641	747
1661.914	744
1664.186	746
1666.457	771
1668.728	738
1670.999	771
1673.269	755
1675.538	774
1677.806	735
1680.074	752
1682.341	733
1684.607	733
1686.873	739
1689.138	743
1691.403	753
1693.667	742
1695.930	734
1698.193	758
1700.455	733
1702.716	761
1704.976	752
1707.236	755
1709.496	754
1711.755	744
1714.013	756
1716.270	759
1718.527	776
1720.783	744
1723.038	736
1725.293	731
1727.548	742
1729.801	719
1732.054	725
1734.306	745
1736.558	749
1738.809	746
1741.059	726
1743.309	756
1745.558	737
1747.807	747
1750.054	723
1752.302	726
1754.548	744
1756.794	766
1759.039	729
1761.284	717
1763.528	725
1765.771	762
1768.014	734
1770.256	740
1772.497	743
1774.738	735
1776.978	729
1779.218	726
1781.457	727
1783.695	742
1785.933	735
1788.170	731
1790.406	746
1792.642	723
1794.877	728
1797.111	768
1799.345	767
1801.578	732
1803.811	745
1806.043	733
1808.274	729
1810.505	742
1812.735	738
1814.964	729
1817.193	732
1819.421	713
1821.648	754
1823.875	726
1826.101	737
1828.327	746
1830.552	728
1832.776	745
1835.000	769
1837.223	712
1839.445	729
1841.667	728
1843.888	741
1846.109	753
1848.329	736
1850.548	733
1852.767	746
1854.985	742
1857.202	719
1859.419	740
1861.635	730
1863.851	739
1866.066	719
1868.280	727
1870.494	760
1872.707	720
1874.919	723
1877.131	737
1879.342	730
1881.553	698
1883.763	720
1885.972	749
1888.181	730
1890.389	729
1892.596	731
1894.803	731
1897.009	730
1899.215	694
1901.420	756
1903.624	750
1905.828	719
1908.031	732
1910.233	709
1912.435	723
1914.636	689
1916.837	731
1919.037	708
1921.236	722
1923.435	731
1925.633	735
1927.831	725
1930.027	723
1932.224	747
1934.419	699
1936.614	708
1938.809	699
1941.003	712
1943.196	714
1945.388	709
1947.580	728
1949.772	733
1951.962	742
1954.152	734
1956.342	740
1958.531	750
1960.719	736
1962.907	728
1965.094	725
1967.280	751
1969.466	729
1971.651	726
1973.836	718
1976.020	725
1978.203	720
1980.386	723
1982.568	732
1984.749	739
1986.930	739
1989.111	728
1991.290	724
1993.469	713
1995.648	728
1997.826	728
2000.003	756
2002.179	723
2004.355	729
2006.531	695
2008.706	723
2010.880	722
2013.053	708
2015.226	718
2017.399	722
2019.570	726
2021.742	735
2023.912	734
2026.082	717
2028.251	737
2030.420	730
2032.588	750
2034.756	715
2036.923	729
2039.089	701
2041.255	715
2043.420	737
2045.584	742
2047.748	740
2049.911	715
2052.074	728
2054.236	707
2056.397	751
2058.558	745
2060.719	716
2062.878	697
2065.037	718
2067.196	733
2069.354	696
2071.511	714
2073.667	712
2075.823	724
2077.979	729
2080.134	712
2082.288	703
2084.442	731
2086.595	733
2088.747	702
2090.899	718
2093.050	724
2095.201	694
2097.351	715
2099.500	731
2101.649	709
2103.797	738
2105.945	704
2108.092	717
2110.238	728
2112.384	714
2114.529	697
2116.674	700
2118.818	753
2120.962	724
2123.104	742
2125.247	705
2127.388	738
2129.529	749
2131.670	713
2133.810	731
2135.949	730
2138.088	700
2140.226	711
2142.363	724
2144.500	728
2146.637	695
2148.772	715
2150.908	720
2153.042	702
2155.176	710
2157.309	735
2159.442	692
2161.574	718
2163.706	714
2165.837	696
2167.967	717
2170.097	706
2172.226	706
2174.355	735
2176.483	694
2178.611	730
2180.737	710
2182.864	727
2184.989	740
2187.114	704
2189.239	717
2191.363	681
2193.486	712
2195.609	713
2197.731	705
2199.853	713
2201.974	706
2204.094	718
2206.214	728
2208.333	731
2210.452	734
2212.570	719
2214.687	706
2216.804	732
2218.920	715
2221.036	703
2223.151	716
2225.266	715
2227.380	719
2229.493	706
2231.606	715
2233.718	740
2235.830	726
2237.941	713
2240.051	714
2242.161	721
2244.270	698
2246.379	696
2248.487	703
2250.595	706
2252.702	687
2254.808	679
2256.914	714
2259.019	702
2261.124	699
2263.228	694
2265.331	707
2267.434	711
2269.536	704
2271.638	741
2273.739	717
2275.840	710
2277.940	699
2280.039	732
2282.138	698
2284.236	706
2286.334	700
2288.431	727
2290.528	713
2292.624	724
2294.719	697
2296.814	701
2298.908	721
2301.002	685
2303.095	690
2305.187	700
2307.279	734
2309.371	716
2311.461	693
2313.552	709
2315.641	703
2317.730	699
2319.819	698
2321.907	688
2323.994	697
2326.081	716
2328.167	725
2330.253	686
2332.338	708
2334.422	713
2336.506	715
2338.589	711
2340.672	694
2342.754	702
2344.836	710
2346.917	727
2348.997	690
2351.077	714
2353.157	703
2355.235	710
2357.313	710
2359.391	703
2361.468	706
2363.545	717
2365.621	702
2367.696	729
2369.771	729
2371.845	709
2373.918	705
2375.992	711
2378.064	695
2380.136	711
2382.207	695
2384.278	677
2386.348	731
2388.418	722
2390.487	708
2392.556	697
2394.624	702
2396.691	694
2398.758	679
2400.824	711
2402.890	688
2404.955	679
2407.020	701
2409.084	714
2411.147	701
2413.210	714
2415.272	704
2417.334	692
2419.395	705
2421.456	686
2423.516	686
2425.575	728
2427.634	697
2429.693	688
2431.751	706
2433.808	721
2435.865	693
2437.921	705
2439.976	670
2442.031	706
2444.086	675
2446.140	681
2448.193	714
2450.246	715
2452.298	672
2454.350	704
2456.401	696
2458.451	699
2460.501	702
2462.551	722
2464.600	695
2466.648	686
2468.696	693
2470.743	700
2472.790	710
2474.836	686
2476.881	704
2478.926	698
2480.971	691
2483.014	688
2485.058	717
2487.101	683
2489.143	702
2491.184	696
2493.225	712
2495.266	679
2497.306	712
2499.345	709
2501.384	696
2503.423	686
2505.460	697
2507.498	693
2509.534	699
2511.570	694
2513.606	692
2515.641	691
2517.675	675
2519.709	699
2521.742	711
2523.775	689
2525.807	709
2527.839	704
2529.870	704
2531.901	683
2533.931	697
2535.960	699
2537.989	698
2540.018	692
2542.046	712
2544.073	705
2546.100	691
2548.126	713
2550.151	712
2552.176	670
2554.201	711
2556.225	708
2558.248	706
2560.271	695
2562.294	711
2564.316	689
2566.337	708
2568.357	704
2570.378	688
2572.397	699
2574.416	713
2576.435	698
2578.453	699
2580.470	703
2582.487	708
2584.503	709
2586.519	709
2588.535	712
2590.549	704
2592.563	724
2594.577	701
2596.590	701
2598.603	709
2600.615	714
2602.626	713
2604.637	709
2606.647	696
2608.657	701
2610.666	703
2612.675	713
2614.683	691
2616.691	695
2618.698	694
2620.705	676
2622.711	688
2624.716	714
2626.721	690
2628.726	692
2630.729	699
2632.733	703
2634.736	705
2636.738	689
2638.739	694
2640.741	700
2642.741	683
2644.741	691
2646.741	678
2648.740	675
2650.738	697
2652.736	671
2654.734	694
2656.731	705
2658.727	696
2660.723	682
2662.718	695
2664.713	665
2666.707	681
2668.701	690
2670.694	693
2672.686	684
2674.678	699
2676.670	682
2678.661	715
2680.651	679
2682.641	705
2684.630	694
2686.619	673
2688.608	685
2690.595	696
2692.583	710
2694.569	707
2696.555	686
2698.541	702
2700.526	687
2702.511	703
2704.495	689
2706.478	712
2708.461	681
2710.444	684
2712.426	700
2714.407	683
2716.388	697
2718.368	684
2720.348	684
2722.327	683
2724.306	699
2726.284	710
2728.262	731
2730.239	721
2732.215	758
2734.192	750
2736.167	758
2738.142	734
2740.117	725
2742.091	726
2744.064	728
2746.037	675
2748.009	688
2749.981	714
2751.952	691
2753.923	696
2755.893	709
2757.863	687
2759.832	719
2761.801	700
2763.769	684
2765.737	687
2767.704	698
2769.671	683
2771.637	665
2773.602	714
2775.567	714
2777.532	689
2779.496	699
2781.459	703
2783.422	689
2785.384	707
2787.346	677
2789.308	713
2791.268	657
2793.229	693
2795.189	709
2797.148	703
2799.107	694
2801.065	712
2803.022	707
2804.980	705
2806.936	697
2808.892	688
2810.848	685
2812.803	695
2814.758	695
2816.712	684
2818.665	697
2820.618	725
2822.571	713
2824.523	699
2826.474	697
2828.425	694
2830.375	707
2832.325	717
2834.275	707
2836.223	703
2838.172	733
2840.120	728
2842.067	744
2844.014	724
2845.960	772
2847.906	763
2849.851	792
2851.796	790
2853.740	815
2855.683	839
2857.627	837
2859.569	863
2861.511	846
2863.453	866
2865.394	840
2867.335	843
2869.275	882
2871.214	858
2873.153	869
2875.092	868
2877.030	849
2878.967	810
2880.904	848
2882.841	826
2884.777	797
2886.712	824
2888.647	815
2890.581	813
2892.515	802
2894.449	806
2896.382	816
2898.314	832
2900.246	862
2902.177	917
2904.108	964
2906.038	1018
2907.968	1080
2909.897	1120
2911.826	1279
2913.755	1301
2915.682	1310
2917.610	1308
2919.536	1315
2921.463	1316
2923.388	1126
2925.313	1101
2927.238	1037
2929.162	1026
2931.086	932
2933.009	928
2934.932	915
2936.854	906
2938.776	855
2940.697	901
2942.618	843
2944.538	858
2946.457	854
2948.376	819
2950.295	840
2952.213	809
2954.131	818
2956.048	852
2957.964	785
2959.881	826
2961.796	791
2963.711	840
2965.626	799
2967.540	770
2969.453	816
2971.366	793
2973.279	842
2975.191	857
2977.103	856
2979.014	890
2980.924	902
2982.834	835
2984.744	822
2986.653	789
2988.561	797
2990.469	795
2992.377	833
2994.284	826
2996.190	855
2998.096	843
3000.002	840
3001.907	838
3003.811	798
3005.715	822
3007.619	831
3009.522	841
3011.424	848
3013.326	816
3015.228	853
3017.129	877
3019.029	889
3020.929	961
3022.829	953
3024.728	1002
3026.626	1015
3028.524	1055
3030.422	1055
3032.319	1115
3034.215	1143
3036.111	1159
3038.007	1138
3039.902	1158
3041.797	1259
3043.691	1258
3045.584	1460
3047.477	1608
3049.370	1732
3051.262	1845
3053.153	1796
3055.044	1751
3056.935	1677
3058.825	1530
3060.714	1496
3062.604	1396
3064.492	1332
3066.380	1206
3068.268	1168
3070.155	1028
3072.041	1010
3073.928	952
3075.813	903
3077.698	851
3079.583	859
3081.467	823
3083.351	792
3085.234	763
3087.116	774
3088.999	754
3090.880	772
3092.761	775
3094.642	743
3096.522	726
3098.402	704
3100.281	751
3102.160	735
3104.038	725
3105.916	721
3107.793	735
3109.670	723
3111.546	711
3113.422	703
3115.297	712
3117.172	705
3119.046	704
3120.920	698
3122.793	689
3124.666	681
3126.539	679
3128.410	698
3130.282	675
3132.153	675
3134.023	689
3135.893	660
3137.762	690
3139.631	697
3141.500	669
3143.368	684
3145.235	684
3147.102	668
3148.969	709
3150.835	688
3152.700	690
3154.565	688
3156.430	702
3158.294	732
3160.157	679
3162.020	686
3163.883	711
3165.745	708
3167.607	679
3169.468	706
3171.329	676
3173.189	704
3175.048	683
3176.908	665
3178.766	676
3180.625	660
3182.482	681
3184.340	686
3186.196	657
3188.053	691
3189.909	670
3191.764	679
3193.619	683
3195.473	681
3197.327	663
3199.181	693
3201.034	696
3202.886	677
3204.738	702
3206.589	685
3208.440	673
3210.291	678
3212.141	666
3213.991	674
3215.840	662
3217.688	699
3219.536	670
3221.384	674
3223.231	678
3225.078	663
3226.924	668
3228.770	654
3230.615	652
3232.460	675
3234.304	672
3236.148	679
3237.992	662
3239.834	660
3241.677	674
3243.519	656
3245.360	665
3247.201	658
3249.042	650
3250.882	670
3252.721	636
3254.560	662
3256.399	659
3258.237	664
3260.075	661
3261.912	671
3263.748	664
3265.585	676
3267.420	662
3269.256	659
3271.090	661
3272.925	683
3274.759	683
3276.592	659
3278.425	656
3280.257	665
3282.089	651
3283.921	650
3285.752	656
3287.582	662
3289.412	665
3291.242	672
3293.071	674
3294.899	647
3296.728	666
3298.555	650
3300.383	655
3302.209	657
3304.036	661
3305.861	673
3307.687	683
3309.512	644
3311.336	665
3313.160	660
3314.983	644
3316.806	653
3318.629	638
3320.451	638
3322.272	669
3324.094	652
3325.914	651
3327.734	650
3329.554	652
3331.373	676
3333.192	667

Frame 6
393.321	673
395.969	676
398.617	678
401.264	671
403.910	705
406.556	684
409.200	709
411.844	713
414.487	697
417.129	694
419.771	708
422.411	689
425.051	724
427.690	723
430.328	717
432.965	714
435.602	719
438.237	720
440.872	721
443.506	736
446.140	750
448.772	723
451.404	756
454.034	762
456.665	725
459.294	742
461.922	773
464.550	772
467.177	765
469.803	745
472.428	750
475.052	753
477.676	773
480.299	742
482.920	743
485.542	736
488.162	762
490.782	762
493.400	725
496.018	740
498.636	778
501.252	763
503.868	743
506.482	761
509.096	755
511.709	769
514.322	767
516.933	876
519.544	974
522.154	1074
524.763	1074
527.372	1031
529.979	930
532.586	800
535.192	761
537.797	756
540.402	764
543.005	756
545.608	730
548.210	718
550.812	746
553.412	719
556.012	751
558.611	719
561.209	731
563.806	758
566.402	755
568.998	756
571.593	729
574.187	721
576.780	778
579.373	748
581.965	739
584.556	760
587.146	748
589.735	753
592.324	764
594.912	771
597.499	767
600.085	755
602.670	776
605.255	739
607.839	773
610.422	722
613.004	790
615.586	828
618.167	843
620.747	894
623.326	905
625.904	881
628.482	904
631.059	856
633.635	813
636.210	780
638.784	761
641.358	773
643.931	745
646.503	721
649.074	750
651.645	746
654.215	729
656.784	756
659.352	737
661.920	728
664.486	742
667.052	774
669.617	735
672.182	735
674.745	741
677.308	772
679.870	722
682.431	766
684.992	754
687.552	772
690.110	766
692.669	730
695.226	738
697.783	741
700.338	763
702.893	760
705.448	768
708.001	738
710.554	762
713.106	757
715.657	745
718.208	771
720.757	763
723.306	767
725.854	755
728.402	755
730.948	802
733.494	743
736.039	753
738.583	770
741.127	770
743.670	764
746.212	757
748.753	734
751.293	757
753.833	756
756.372	753
758.910	725
761.448	737
763.984	755
766.520	765
769.055	756
771.589	790
774.123	785
776.656	846
779.188	906
781.719	1176
784.250	1541
786.779	1719
789.308	1749
791.837	1591
794.364	1169
796.891	905
799.417	804
801.942	836
804.467	798
806.990	826
809.513	816
812.035	831
814.557	809
817.077	819
819.597	775
822.116	761
824.635	775
827.152	767
829.669	782
832.185	772
834.701	789
837.215	769
839.729	775
842.242	755
844.755	769
847.266	786
849.777	778
852.287	754
854.797	767
857.305	747
859.813	766
862.320	774
864.826	743
867.332	750
869.837	764
872.341	766
874.844	760
877.347	738
879.849	753
882.350	736
884.850	761
887.350	763
889.848	734
892.347	736
894.844	780
897.340	752
899.836	777
902.331	762
904.826	742
907.319	748
909.812	731
912.304	752
914.796	764
917.286	746
919.776	742
922.265	729
924.754	724
927.242	713
929.728	750
932.215	758
934.700	746
937.185	741
939.669	774
942.152	772
944.634	757
947.116	742
949.597	754
952.077	738
954.557	739
957.036	740
959.514	757
961.991	766
964.468	764
966.943	749
969.418	765
971.893	795
974.366	781
976.839	785
979.311	759
981.783	772
984.254	792
986.724	823
989.193	830
991.661	822
994.129	908
996.596	1039
999.062	1555
1001.528	2046
1003.993	2400
1006.457	2475
1008.920	2124
1011.383	1264
1013.844	913
1016.306	823
1018.766	789
1021.226	835
1023.685	870
1026.143	1017
1028.600	1168
1031.057	1172
1033.513	1286
1035.968	1149
1038.423	905
1040.877	801
1043.330	783
1045.782	782
1048.234	770
1050.685	763
1053.135	737
1055.585	782
1058.033	735
1060.482	767
1062.929	766
1065.375	721
1067.821	741
1070.266	741
1072.711	743
1075.155	765
1077.598	791
1080.040	737
1082.481	772
1084.922	752
1087.362	754
1089.802	742
1092.240	751
1094.678	757
1097.115	739
1099.552	742
1101.988	743
1104.423	772
1106.857	739
1109.291	759
1111.723	742
1114.156	739
1116.587	757
1119.018	745
1121.448	739
1123.877	743
1126.306	759
1128.734	774
1131.161	747
1133.587	747
1136.013	773
1138.438	759
1140.862	761
1143.286	776
1145.709	767
1148.131	786
1150.552	798
1152.973	849
1155.393	846
1157.812	834
1160.231	867
1162.649	812
1165.066	814
1167.482	779
1169.898	793
1172.313	789
1174.727	823
1177.141	859
1179.554	819
1181.966	857
1184.377	812
1186.788	877
1189.198	806
1191.607	778
1194.016	788
1196.424	807
1198.831	809
1201.238	823
1203.644	884
1206.049	1029
1208.453	1168
1210.857	1199
1213.260	1145
1215.662	1031
1218.064	852
1220.464	820
1222.865	782
1225.264	793
1227.663	774
1230.061	717
1232.458	745
1234.855	767
1237.251	777
1239.646	737
1242.041	765
1244.434	728
1246.828	738
1249.220	747
1251.612	738
1254.003	736
1256.393	743
1258.783	738
1261.172	762
1263.560	754
1265.947	729
1268.334	753
1270.720	741
1273.106	732
1275.491	751
1277.875	748
1280.258	770
1282.641	743
1285.022	742
1287.404	779
1289.784	754
1292.164	729
1294.543	743
1296.922	748
1299.300	755
1301.677	747
1304.053	759
1306.429	770
1308.804	764
1311.178	760
1313.552	765
1315.925	744
1318.297	759
1320.668	764
1323.039	741
1325.409	761
1327.779	768
1330.148	751
1332.516	765
1334.883	760
1337.250	755
1339.616	765
1341.981	778
1344.346	767
1346.710	731
1349.073	765
1351.436	764
1353.797	768
1356.159	768
1358.519	767
1360.879	742
1363.238	777
1365.597	784
1367.954	818
1370.311	817
1372.668	830
1375.023	866
1377.378	904
1379.733	938
1382.086	932
1384.439	914
1386.792	808
1389.143	771
1391.494	770
1393.844	799
1396.194	766
1398.543	795
1400.891	737
1403.239	766
1405.585	792
1407.931	741
1410.277	757
1412.622	748
1414.966	797
1417.309	789
1419.652	784
1421.994	806
1424.335	767
1426.676	791
1429.016	810
1431.355	788
1433.694	777
1436.032	834
1438.369	818
1440.706	836
1443.042	776
1445.377	827
1447.712	805
1450.046	796
1452.379	797
1454.712	805
1457.044	824
1459.375	812
1461.705	798
1464.035	791
1466.364	780
1468.693	783
1471.021	761
1473.348	775
1475.675	736
1478.000	781
1480.326	783
1482.650	770
1484.974	786
1487.297	760
1489.619	763
1491.941	785
1494.262	748
1496.583	781
1498.903	757
1501.222	777
1503.540	766
1505.858	774
1508.175	762
1510.492	751
1512.807	750
1515.123	745
1517.437	755
1519.751	753
1522.064	755
1524.376	744
1526.688	736
1528.999	760
1531.310	763
1533.619	765
1535.929	755
1538.237	733
1540.545	767
1542.852	793
1545.158	769
1547.464	728
1549.769	776
1552.074	761
1554.378	784
1556.681	780
1558.983	776
1561.285	790
1563.586	789
1565.887	787
1568.187	784
1570.486	801
1572.784	797
1575.082	796
1577.379	800
1579.676	868
1581.972	870
1584.267	896
1586.561	924
1588.855	921
1591.149	861
1593.441	894
1595.733	898
1598.024	918
1600.315	981
1602.605	1023
1604.894	1022
1607.183	1037
1609.471	937
1611.758	896
1614.045	845
1616.331	837
1618.616	843
1620.901	814
1623.185	762
1625.468	785
1627.751	762
1630.033	787
1632.314	767
1634.595	787
1636.875	772
1639.155	746
1641.434	753
1643.712	770
1645.989	731
1648.266	768
1650.542	777
1652.818	760
1655.093	776
1657.367	761
1659.641	742
1661.914	724
1664.186	729
1666.457	724
1668.728	751
1670.999	736
1673.269	748
1675.538	732
1677.806	740
1680.074	736
1682.341	732
1684.607	726
1686.873	774
1689.138	741
1691.403	738
1693.667	731
1695.930	732
1698.193	751
1700.455	726
1702.716	757
1704.976	757
1707.236	717
1709.496	736
1711.755	738
1714.013	725
1716.270	740
1718.527	750
1720.783	728
1723.038	736
1725.293	724
1727.548	756
1729.801	744
1732.054	725
1734.306	724
1736.558	744
1738.809	766
1741.059	736
1743.309	731
1745.558	726
1747.807	758
1750.054	739
1752.302	725
1754.548	717
1756.794	740
1759.039	750
1761.284	734
1763.528	740
1765.771	723
1768.014	728
1770.256	736
1772.497	749
1774.738	756
1776.978	743
1779.218	722
1781.457	741
1783.695	727
1785.933	736
1788.170	730
1790.406	756
1792.642	737
1794.877	757
1797.111	738
1799.345	724
1801.578	742
1803.811	742
1806.043	735
1808.274	734
1810.505	706
1812.735	734
1814.964	742
1817.193	766
1819.421	753
1821.648	728
1823.875	731
1826.101	753
1828.327	719
1830.552	756
1832.776	752
1835.000	724
1837.223	711
1839.445	733
1841.667	706
1843.888	733
1846.109	744
1848.329	757
1850.548	729
1852.767	730
1854.985	718
1857.202	736
1859.419	730
1861.635	735
1863.851	728
1866.066	707
1868.280	734
1870.494	706
1872.707	739
1874.919	729
1877.131	735
1879.342	726
1881.553	716
1883.763	718
1885.972	710
1888.181	734
1890.389	719
1892.596	721
1894.803	719
1897.009	712
1899.215	711
1901.420	725
1903.624	719
1905.828	719
1908.031	733
1910.233	702
1912.435	723
1914.636	716
1916.837	742
1919.037	720
1921.236	717
1923.435	714
1925.633	725
1927.831	715
1930.027	733
1932.224	734
1934.419	740
1936.614	728
1938.809	730
1941.003	735
1943.196	746
1945.388	723
1947.580	748
1949.772	727
1951.962	731
1954.152	716
1956.342	722
1958.531	711
1960.719	743
1962.907	705
1965.094	741
1967.280	733
1969.466	725
1971.651	724
1973.836	699
1976.020	738
1978.203	723
1980.386	716
1982.568	712
1984.749	739
1986.930	729
1989.111	725
1991.290	735
1993.469	722
1995.648	706
1997.826	737
2000.003	708
2002.179	718
2004.355	736
2006.531	704
2008.706	723
2010.880	716
2013.053	722
2015.226	714
2017.399	713
2019.570	726
2021.742	703
2023.912	703
2026.082	725
2028.251	726
2030.420	729
2032.588	712
2034.756	726
2036.923	713
2039.089	724
2041.255	713
2043.420	719
2045.584	724
2047.748	732
2049.911	728
2052.074	700
2054.236	749
2056.397	754
2058.558	719
2060.719	708
2062.878	716
2065.037	724
2067.196	708
2069.354	722
2071.511	718
2073.667	731
2075.823	732
2077.979	733
2080.134	729
2082.288	719
2084.442	725
2086.595	727
2088.747	716
2090.899	713
2093.050	703
2095.201	703
2097.351	680
2099.500	697
2101.649	714
2103.797	719
2105.945	717
2108.092	718
2110.238	697
2112.384	696
2114.529	711
2116.674	733
2118.818	721
2120.962	734
2123.104	716
2125.247	732
2127.388	719
2129.529	698
2131.670	718
2133.810	708
2135.949	699
2138.088	716
2140.226	715
2142.363	695
2144.500	684
2146.637	696
2148.772	722
2150.908	691
2153.042	738
2155.176	687
2157.309	721
2159.442	704
2161.574	685
2163.706	716
2165.837	726
2167.967	706
2170.097	695
2172.226	723
2174.355	725
2176.483	700
2178.611	713
2180.737	707
2182.864	724
2184.989	690
2187.114	687
2189.239	698
2191.363	727
2193.486	716
2195.609	711
2197.731	723
2199.853	713
2201.974	729
2204.094	703
2206.214	716
2208.333	713
2210.452	714
2212.570	708
2214.687	708
2216.804	698
2218.920	709
2221.036	707
2223.151	700
2225.266	730
2227.380	712
2229.493	721
2231.606	699
2233.718	702
2235.830	682
2237.941	727
2240.051	698
2242.161	732
2244.270	724
2246.379	728
2248.487	710
2250.595	706
2252.702	706
2254.808	734
2256.914	724
2259.019	697
2261.124	727
2263.228	696
2265.331	694
2267.434	700
2269.536	712
2271.638	715
2273.739	702
2275.840	708
2277.940	725
2280.039	697
2282.138	708
2284.236	731
2286.334	710
2288.431	685
2290.528	695
2292.624	719
2294.719	714
2296.814	705
2298.908	696
2301.002	678
2303.095	705
2305.187	675
2307.279	705
2309.371	683
2311.461	712
2313.552	698
2315.641	699
2317.730	694
2319.819	703
2321.907	698
2323.994	702
2326.081	702
2328.167	701
2330.253	680
2332.338	706
2334.422	701
2336.506	693
2338.589	711
2340.672	678
2342.754	692
2344.836	701
2346.917	694
2348.997	710
2351.077	692
2353.157	698
2355.235	689
2357.313	688
2359.391	697
2361.468	699
2363.545	692
2365.621	690
2367.696	695
2369.771	690
2371.845	708
2373.918	687
2375.992	719
2378.064	698
2380.136	692
2382.207	698
2384.278	699
2386.348	701
2388.418	684
2390.487	703
2392.556	706
2394.624	710
2396.691	714
2398.758	687
2400.824	689
2402.890	702
2404.955	721
2407.020	721
2409.084	708
2411.147	693
2413.210	697
2415.272	714
2417.334	728
2419.395	707
2421.456	727
2423.516	685
2425.575	720
2427.634	700
2429.693	699
2431.751	707
2433.808	728
2435.865	694
2437.921	699
2439.976	705
2442.031	703
2444.086	708
2446.140	688
2448.193	696
2450.246	686
2452.298	697
2454.350	685
2456.401	709
2458.451	721
2460.501	711
2462.551	685
2464.600	713
2466.648	693
2468.696	681
2470.743	680
2472.790	681
2474.836	686
2476.881	696
2478.926	689
2480.971	677
2483.014	710
2485.058	679
2487.101	687
2489.143	673
2491.184	697
2493.225	685
2495.266	681
2497.306	686
2499.345	689
2501.384	690
2503.423	679
2505.460	681
2507.498	689
2509.534	719
2511.570	675
2513.606	702
2515.641	690
2517.675	710
2519.709	697
2521.742	705
2523.775	688
2525.807	674
2527.839	703
2529.870	706
2531.901	687
2533.931	682
2535.960	697
2537.989	684
2540.018	694
2542.046	697
2544.073	695
2546.100	703
2548.126	671
2550.151	690
2552.176	696
2554.201	676
2556.225	720
2558.248	708
2560.271	698
2562.294	705
2564.316	702
2566.337	703
2568.357	693
2570.378	697
2572.397	712
2574.416	713
2576.435	708
2578.453	690
2580.470	722
2582.487	688
2584.503	728
2586.519	697
2588.535	714
2590.549	699
2592.563	684
2594.577	688
2596.590	681
2598.603	692
2600.615	714
2602.626	703
2604.637	722
2606.647	686
2608.657	722
2610.666	701
2612.675	698
2614.683	708
2616.691	688
2618.698	701
2620.705	712
2622.711	686
2624.716	721
2626.721	693
2628.726	694
2630.729	689
2632.733	697
2634.736	666
2636.738	676
2638.739	662
2640.741	685
2642.741	711
2644.741	704
2646.741	678
2648.740	685
2650.738	692
2652.736	692
2654.734	707
2656.731	675
2658.727	696
2660.723	682
2662.718	697
2664.713	701
2666.707	685
2668.701	679
2670.694	671
2672.686	691
2674.678	697
2676.670	679
2678.661	694
2680.651	676
2682.641	689
2684.630	695
2686.619	691
2688.608	688
2690.595	691
2692.583	690
2694.569	679
2696.555	695
2698.541	680
2700.526	677
2702.511	696
2704.495	672
2706.478	669
2708.461	695
2710.444	691
2712.426	702
2714.407	676
2716.388	688
2718.368	678
2720.348	717
2722.327	669
2724.306	678
2726.284	726
2728.262	722
2730.239	730
2732.215	720
2734.192	737
2736.167	745
2738.142	725
2740.117	718
2742.091	710
2744.064	712
2746.037	697
2748.009	708
2749.981	706
2751.952	702
2753.923	684
2755.893	693
2757.863	707
2759.832	713
2761.801	679
2763.769	699
2765.737	702
2767.704	691
2769.671	676
2771.637	690
2773.602	702
2775.567	681
2777.532	689
2779.496	699
2781.459	699
2783.422	693
2785.384	671
2787.346	689
2789.308	701
2791.268	688
2793.229	691
2795.189	712
2797.148	696
2799.107	683
2801.065	717
2803.022	679
2804.980	694
2806.936	695
2808.892	706
2810.848	692
2812.803	710
2814.758	697
2816.712	688
2818.665	707
2820.618	690
2822.571	694
2824.523	692
2826.474	686
2828.425	690
2830.375	702
2832.325	715
2834.275	720
2836.223	726
2838.172	708
2840.120	725
2842.067	759
2844.014	726
2845.960	770
2847.906	787
2849.851	774
2851.796	785
2853.740	796
2855.683	827
2857.627	848
2859.569	850
2861.511	823
2863.453	812
2865.394	837
2867.335	848
2869.275	852
2871.214	840
2873.153	858
2875.092	819
2877.030	835
2878.967	811
2880.904	843
2882.841	828
2884.777	788
2886.712	785
2888.647	817
2890.581	798
2892.515	792
2894.449	841
2896.382	847
2898.314	860
2900.246	872
2902.177	899
2904.108	988
2906.038	1046
2907.968	1081
2909.897	1139
2911.826	1228
2913.755	1277
2915.682	1329
2917.610	1290
2919.536	1359
2921.463	1283
2923.388	1165
2925.313	1077
2927.238	1098
2929.162	1018
2931.086	929
2933.009	910
2934.932	897
2936.854	877
2938.776	860
2940.697	869
2942.618	857
2944.538	830
2946.457	880
2948.376	814
2950.295	824
2952.213	814
2954.131	824
2956.048	815
2957.964	796
2959.881	783
2961.796	783
2963.711	769
2965.626	813
2967.540	761
2969.453	820
2971.366	818
2973.279	857
2975.191	858
2977.103	858
2979.014	923
2980.924	908
2982.834	886
2984.744	815
2986.653	807
2988.561	800
2990.469	808
2992.377	811
2994.284	812
2996.190	869
2998.096	854
3000.002	871
3001.907	902
3003.811	865
3005.715	798
3007.619	847
3009.522	836
3011.424	846
3013.326	799
3015.228	833
3017.129	841
3019.029	830
3020.929	935
3022.829	908
3024.728	983
3026.626	1034
3028.524	990
3030.422	1053
3032.319	1094
3034.215	1089
3036.111	1106
3038.007	1169
3039.902	1165
3041.797	1222
3043.691	1236
3045.584	1417
3047.477	1564
3049.370	1675
3051.262	1756
3053.153	1801
3055.044	1760
3056.935	1600
3058.825	1507
3060.714	1446
3062.604	1390
3064.492	1270
3066.380	1229
3068.268	1111
3070.155	1043
3072.041	998
3073.928	911
3075.813	882
3077.698	842
3079.583	826
3081.467	824
3083.351	776
3085.234	790
3087.116	752
3088.999	797
3090.880	752
3092.761	753
3094.642	712
3096.522	723
3098.402	741
3100.281	741
3102.160	702
3104.038	738
3105.916	750
3107.793	717
3109.670	688
3111.546	699
3113.422	699
3115.297	712
3117.172	683
3119.046	692
3120.920	697
3122.793	693
3124.666	679
3126.539	709
3128.410	687
3130.282	654
3132.153	699
3134.023	689
3135.893	683
3137.762	689
3139.631	669
3141.500	697
3143.368	686
3145.235	663
3147.102	670
3148.969	692
3150.835	707
3152.700	679
3154.565	694
3156.430	683
3158.294	677
3160.157	692
3162.020	683
3163.883	702
3165.745	710
3167.607	679
3169.468	672
3171.329	677
3173.189	706
3175.048	668
3176.908	669
3178.766	672
3180.625	667
3182.482	666
3184.340	680
3186.196	685
3188.053	665
3189.909	684
3191.764	677
3193.619	668
3195.473	667
3197.327	686
3199.181	689
3201.034	684
3202.886	691
3204.738	680
3206.589	699
3208.440	674
3210.291	670
3212.141	678
3213.991	688
3215.840	660
3217.688	662
3219.536	664
3221.384	657
3223.231	648
3225.078	658
3226.924	652
3228.770	663
3230.615	663
3232.460	671
3234.304	653
3236.148	641
3237.992	670
3239.834	648
3241.677	663
3243.519	651
3245.360	654
3247.201	656
3249.042	654
3250.882	641
3252.721	640
3254.560	663
3256.399	656
3258.237	668
3260.075	652
3261.912	658
3263.748	662
3265.585	650
3267.420	661
3269.256	643
3271.090	670
3272.925	669
3274.759	664
3276.592	663
3278.425	651
3280.257	663
3282.089	667
3283.921	641
3285.752	667
3287.582	663
3289.412	666
3291.242	648
3293.071	654
3294.899	650
3296.728	661
3298.555	647
3300.383	646
3302.209	658
3304.036	659
3305.861	655
3307.687	656
3309.512	671
3311.336	650
3313.160	650
3314.983	649
3316.806	654
3318.629	637
3320.451	679
3322.272	635
3324.094	653
3325.914	662
3327.734	630
3329.554	663
3331.373	642
3333.192	662

Frame 7
393.321	660
395.969	674
398.617	688
401.264	679
403.910	681
406.556	687
409.200	688
411.844	702
414.487	710
417.129	710
419.771	736
422.411	704
425.051	706
427.690	725
430.328	697
432.965	734
435.602	713
438.237	720
440.872	761
443.506	743
446.140	728
448.772	759
451.404	761
454.034	748
456.665	707
459.294	778
461.922	739
464.550	759
467.177	778
469.803	755
472.428	751
475.052	753
477.676	754
480.299	747
482.920	732
485.542	737
488.162	743
490.782	763
493.400	715
496.018	748
498.636	757
501.252	744
503.868	771
506.482	759
509.096	768
511.709	786
514.322	824
516.933	857
519.544	1037
522.154	1028
524.763	1040
527.372	1038
529.979	926
532.586	825
535.192	802
537.797	768
540.402	747
543.005	767
545.608	738
548.210	742
550.812	777
553.412	725
556.012	770
558.611	744
561.209	753
563.806	751
566.402	769
568.998	729
571.593	740
574.187	734
576.780	723
579.373	745
581.965	743
584.556	757
587.146	752
589.735	732
592.324	752
594.912	746
597.499	723
600.085	754
602.670	772
605.255	749
607.839	764
610.422	777
613.004	784
615.586	809
618.167	834
620.747	873
623.326	880
625.904	892
628.482	889
631.059	828
633.635	801
636.210	780
638.784	777
641.358	785
643.931	749
646.503	753
649.074	781
651.645	741
654.215	758
656.784	722
659.352	730
661.920	747
664.486	756
667.052	713
669.617	766
672.182	729
674.745	732
677.308	762
679.870	756
682.431	746
684.992	773
687.552	739
690.110	746
692.669	715
695.226	736
697.783	766
700.338	742
702.893	777
705.448	741
708.001	745
710.554	751
713.106	772
715.657	767
718.208	769
720.757	777
723.306	792
725.854	762
728.402	756
730.948	767
733.494	784
736.039	764
738.583	760
741.127	757
743.670	754
746.212	779
748.753	759
751.293	736
753.833	757
756.372	740
758.910	783
761.448	756
763.984	751
766.520	744
769.055	782
771.589	766
774.123	782
776.656	818
779.188	917
781.719	1188
784.250	1518
786.779	1635
789.308	1659
791.837	1549
794.364	1169
796.891	915
799.417	813
801.942	784
804.467	796
806.990	801
809.513	814
812.035	824
814.557	781
817.077	766
819.597	775
822.116	754
824.635	759
827.152	754
829.669	759
832.185	771
834.701	764
837.215	794
839.729	798
842.242	772
844.755	807
847.266	767
849.777	748
852.287	797
854.797	764
857.305	747
859.813	756
862.320	720
864.826	742
867.332	738
869.837	729
872.341	772
874.844	766
877.347	759
879.849	743
882.350	753
884.850	760
887.350	739
889.848	744
892.347	785
894.844	779
897.340	759
899.836	761
902.331	762
904.826	772
907.319	761
909.812	763
912.304	759
914.796	723
917.286	744
919.776	750
922.265	737
924.754	752
927.242	732
929.728	750
932.215	759
934.700	730
937.185	763
939.669	735
942.152	734
944.634	759
947.116	716
949.597	741
952.077	746
954.557	748
957.036	727
959.514	741
961.991	767
964.468	743
966.943	766
969.418	749
971.893	788
974.366	756
976.839	766
979.311	768
981.783	775
984.254	801
986.724	778
989.193	789
991.661	881
994.129	901
996.596	1093
999.062	1532
1001.528	2044
1003.993	2400
1006.457	2278
1008.920	2069
1011.383	1214
1013.844	917
1016.306	801
1018.766	796
1021.226	812
1023.685	849
1026.143	974
1028.600	1117
1031.057	1151
1033.513	1247
1035.968	1067
1038.423	914
1040.877	807
1043.330	771
1045.782	738
1048.234	746
1050.685	772
1053.135	756
1055.585	769
1058.033	769
1060.482	756
1062.929	755
1065.375	728
1067.821	729
1070.266	764
1072.711	746
1075.155	734
1077.598	767
1080.040	759
1082.481	759
1084.922	737
1087.362	746
1089.802	759
1092.240	753
1094.678	725
1097.115	766
1099.552	738
1101.988	732
1104.423	764
1106.857	736
1109.291	740
1111.723	739
1114.156	745
1116.587	721
1119.018	727
1121.448	737
1123.877	772
1126.306	753
1128.734	751
1131.161	740
1133.587	759
1136.013	754
1138.438	745
1140.862	765
1143.286	785
1145.709	780
1148.131	805
1150.552	817
1152.973	826
1155.393	851
1157.812	844
1160.231	835
1162.649	846
1165.066	817
1167.482	795
1169.898	803
1172.313	794
1174.727	808
1177.141	860
1179.554	859
1181.966	863
1184.377	858
1186.788	833
1189.198	793
1191.607	762
1194.016	787
1196.424	782
1198.831	793
1201.238	811
1203.644	889
1206.049	1027
1208.453	1120
1210.857	1131
1213.260	1155
1215.662	1059
1218.064	888
1220.464	808
1222.865	755
1225.264	749
1227.663	749
1230.061	743
1232.458	759
1234.855	781
1237.251	754
1239.646	739
1242.041	742
1244.434	743
1246.828	761
1249.220	754
1251.612	732
1254.003	762
1256.393	749
1258.783	741
1261.172	762
1263.560	751
1265.947	712
1268.334	746
1270.720	757
1273.106	755
1275.491	757
1277.875	727
1280.258	747
1282.641	758
1285.022	741
1287.404	738
1289.784	744
1292.164	743
1294.543	749
1296.922	737
1299.300	752
1301.677	739
1304.053	765
1306.429	755
1308.804	766
1311.178	771
1313.552	762
1315.925	733
1318.297	754
1320.668	783
1323.039	720
1325.409	759
1327.779	765
1330.148	750
1332.516	771
1334.883	744
1337.250	768
1339.616	775
1341.981	740
1344.346	725
1346.710	757
1349.073	755
1351.436	741
1353.797	740
1356.159	762
1358.519	789
1360.879	721
1363.238	760
1365.597	787
1367.954	780
1370.311	795
1372.668	820
1375.023	869
1377.378	919
1379.733	902
1382.086	895
1384.439	879
1386.792	820
1389.143	794
1391.494	797
1393.844	770
1396.194	800
1398.543	762
1400.891	782
1403.239	780
1405.585	777
1407.931	758
1410.277	783
1412.622	745
1414.966	770
1417.309	776
1419.652	761
1421.994	820
1424.335	779
1426.676	794
1429.016	782
1431.355	795
1433.694	771
1436.032	785
1438.369	802
1440.706	820
1443.042	805
1445.377	797
1447.712	805
1450.046	819
1452.379	815
1454.712	821
1457.044	811
1459.375	766
1461.705	786
1464.035	750
1466.364	799
1468.693	774
1471.021	776
1473.348	773
1475.675	796
1478.000	783
1480.326	779
1482.650	778
1484.974	764
1487.297	787
1489.619	774
1491.941	786
1494.262	769
1496.583	782
1498.903	774
1501.222	774
1503.540	765
1505.858	764
1508.175	764
1510.492	753
1512.807	750
1515.123	778
1517.437	755
1519.751	760
1522.064	749
1524.376	756
1526.688	750
1528.999	792
1531.310	771
1533.619	758
1535.929	779
1538.237	751
1540.545	743
1542.852	760
1545.158	771
1547.464	738
1549.769	767
1552.074	745
1554.378	759
1556.681	767
1558.983	747
1561.285	780
1563.586	793
1565.887	767
1568.187	795
1570.486	775
1572.784	804
1575.082	784
1577.379	842
1579.676	864
1581.972	906
1584.267	919
1586.561	895
1588.855	887
1591.149	869
1593.441	888
1595.733	885
1598.024	929
1600.315	969
1602.605	1008
1604.894	991
1607.183	983
1609.471	935
1611.758	911
1614.045	876
1616.331	811
1618.616	807
1620.901	828
1623.185	813
1625.468	809
1627.751	762
1630.033	774
1632.314	765
1634.595	766
1636.875	794
1639.155	729
1641.434	763
1643.712	774
1645.989	752
1648.266	725
1650.542	731
1652.818	725
1655.093	748
1657.367	756
1659.641	727
1661.914	753
1664.186	748
1666.457	753
1668.728	730
1670.999	738
1673.269	761
1675.538	772
1677.806	750
1680.074	750
1682.341	742
1684.607	733
1686.873	735
1689.138	762
1691.403	731
1693.667	754
1695.930	731
1698.193	764
1700.455	717
1702.716	712
1704.976	728
1707.236	757
1709.496	742
1711.755	724
1714.013	754
1716.270	741
1718.527	749
1720.783	704
1723.038	743
1725.293	743
1727.548	749
1729.801	731
1732.054	735
1734.306	707
1736.558	760
1738.809	732
1741.059	748
1743.309	752
1745.558	754
1747.807	762
1750.054	732
1752.302	754
1754.548	711
1756.794	719
1759.039	767
1761.284	719
1763.528	765
1765.771	759
1768.014	740
1770.256	737
1772.497	725
1774.738	762
1776.978	720
1779.218	756
1781.457	735
1783.695	742
1785.933	746
1788.170	720
1790.406	721
1792.642	757
1794.877	728
1797.111	720
1799.345	719
1801.578	746
1803.811	760
1806.043	731
1808.274	711
1810.505	739
1812.735	744
1814.964	758
1817.193	725
1819.421	698
1821.648	718
1823.875	726
1826.101	717
1828.327	742
1830.552	722
1832.776	730
1835.000	753
1837.223	736
1839.445	754
1841.667	766
1843.888	738
1846.109	758
1848.329	725
1850.548	729
1852.767	719
1854.985	757
1857.202	731
1859.419	730
1861.635	730
1863.851	742
1866.066	706
1868.280	720
1870.494	743
1872.707	736
1874.919	713
1877.131	716
1879.342	716
1881.553	727
1883.763	730
1885.972	739
1888.181	719
1890.389	732
1892.596	713
1894.803	743
1897.009	752
1899.215	707
1901.420	730
1903.624	724
1905.828	719
1908.031	746
1910.233	734
1912.435	718
1914.636	712
1916.837	706
1919.037	724
1921.236	734
1923.435	721
1925.633	747
1927.831	727
1930.027	716
1932.224	731
1934.419	727
1936.614	708
1938.809	732
1941.003	718
1943.196	734
1945.388	737
1947.580	726
1949.772	703
1951.962	720
1954.152	728
1956.342	745
1958.531	717
1960.719	724
1962.907	759
1965.094	739
1967.280	710
1969.466	731
1971.651	717
1973.836	728
1976.020	734
1978.203	739
1980.386	705
1982.568	711
1984.749	725
1986.930	701
1989.111	707
1991.290	714
1993.469	737
1995.648	724
1997.826	713
2000.003	735
2002.179	748
2004.355	715
2006.531	725
2008.706	730
2010.880	728
2013.053	723
2015.226	709
2017.399	719
2019.570	712
2021.742	743
2023.912	717
2026.082	723
2028.251	690
2030.420	717
2032.588	719
2034.756	718
2036.923	719
2039.089	746
2041.255	718
2043.420	700
2045.584	704
2047.748	725
2049.911	704
2052.074	744
2054.236	719
2056.397	700
2058.558	698
2060.719	696
2062.878	715
2065.037	729
2067.196	724
2069.354	699
2071.511	727
2073.667	707
2075.823	739
2077.979	721
2080.134	716
2082.288	693
2084.442	710
2086.595	713
2088.747	707
2090.899	705
2093.050	715
2095.201	713
2097.351	715
2099.500	735
2101.649	703
2103.797	704
2105.945	707
2108.092	708
2110.238	730
2112.384	682
2114.529	740
2116.674	724
2118.818	712
2120.962	720
2123.104	705
2125.247	709
2127.388	714
2129.529	699
2131.670	687
2133.810	688
2135.949	734
2138.088	714
2140.226	715
2142.363	726
2144.500	712
2146.637	727
2148.772	711
2150.908	693
2153.042	720
2155.176	703
2157.309	723
2159.442	714
2161.574	720
2163.706	704
2165.837	730
2167.967	713
2170.097	727
2172.226	713
2174.355	723
2176.483	740
2178.611	699
2180.737	714
2182.864	716
2184.989	724
2187.114	698
2189.239	711
2191.363	722
2193.486	710
2195.609	703
2197.731	706
2199.853	696
2201.974	704
2204.094	717
2206.214	700
2208.333	718
2210.452	727
2212.570	723
2214.687	694
2216.804	722
2218.920	730
2221.036	689
2223.151	700
2225.266	708
2227.380	713
2229.493	724
2231.606	715
2233.718	701
2235.830	674
2237.941	690
2240.051	677
2242.161	698
2244.270	719
2246.379	706
2248.487	712
2250.595	730
2252.702	703
2254.808	695
2256.914	696
2259.019	709
2261.124	706
2263.228	707
2265.331	702
2267.434	688
2269.536	710
2271.638	699
2273.739	703
2275.840	712
2277.940	715
2280.039	687
2282.138	721
2284.236	707
2286.334	726
2288.431	678
2290.528	687
2292.624	698
2294.719	695
2296.814	704
2298.908	687
2301.002	702
2303.095	712
2305.187	698
2307.279	710
2309.371	727
2311.461	696
2313.552	719
2315.641	726
2317.730	699
2319.819	717
2321.907	704
2323.994	717
2326.081	720
2328.167	699
2330.253	708
2332.338	699
2334.422	676
2336.506	708
2338.589	707
2340.672	711
2342.754	706
2344.836	679
2346.917	702
2348.997	708
2351.077	714
2353.157	705
2355.235	721
2357.313	690
2359.391	710
2361.468	711
2363.545	698
2365.621	697
2367.696	698
2369.771	706
2371.845	689
2373.918	736
2375.992	690
2378.064	712
2380.136	696
2382.207	701
2384.278	728
2386.348	680
2388.418	694
2390.487	711
2392.556	674
2394.624	688
2396.691	694
2398.758	728
2400.824	682
2402.890	687
2404.955	717
2407.020	678
2409.084	684
2411.147	714
2413.210	687
2415.272	697
2417.334	725
2419.395	695
2421.456	686
2423.516	693
2425.575	666
2427.634	727
2429.693	707
2431.751	714
2433.808	698
2435.865	703
2437.921	689
2439.976	717
2442.031	707
2444.086	703
2446.140	694
2448.193	719
2450.246	698
2452.298	713
2454.350	687
2456.401	694
2458.451	703
2460.501	669
2462.551	714
2464.600	715
2466.648	686
2468.696	690
2470.743	689
2472.790	700
2474.836	692
2476.881	696
2478.926	697
2480.971	698
2483.014	683
2485.058	679
2487.101	691
2489.143	690
2491.184	698
2493.225	666
2495.266	692
2497.306	705
2499.345	689
2501.384	684
2503.423	687
2505.460	687
2507.498	715
2509.534	699
2511.570	679
2513.606	702
2515.641	674
2517.675	690
2519.709	690
2521.742	694
2523.775	704
2525.807	703
2527.839	702
2529.870	690
2531.901	700
2533.931	698
2535.960	690
2537.989	713
2540.018	674
2542.046	716
2544.073	687
2546.100	718
2548.126	696
2550.151	695
2552.176	730
2554.201	702
2556.225	710
2558.248	684
2560.271	702
2562.294	705
2564.316	707
2566.337	683
2568.357	720
2570.378	687
2572.397	697
2574.416	699
2576.435	709
2578.453	720
2580.470	693
2582.487	699
2584.503	706
2586.519	693
2588.535	714
2590.549	690
2592.563	716
2594.577	695
2596.590	694
2598.603	699
2600.615	715
2602.626	699
2604.637	681
2606.647	691
2608.657	715
2610.666	682
2612.675	699
2614.683	664
2616.691	687
2618.698	708
2620.705	690
2622.711	676
2624.716	695
2626.721	680
2628.726	671
2630.729	660
2632.733	691
2634.736	686
2636.738	671
2638.739	697
2640.741	701
2642.741	703
2644.741	706
2646.741	692
2648.740	674
2650.738	671
2652.736	679
2654.734	668
2656.731	713
2658.727	688
2660.723	687
2662.718	680
2664.713	697
2666.707	702
2668.701	703
2670.694	698
2672.686	696
2674.678	699
2676.670	688
2678.661	695
2680.651	704
2682.641	697
2684.630	685
2686.619	676
2688.608	695
2690.595	691
2692.583	680
2694.569	695
2696.555	688
2698.541	683
2700.526	687
2702.511	683
2704.495	689
2706.478	686
2708.461	677
2710.444	687
2712.426	701
2714.407	671
2716.388	693
2718.368	667
2720.348	687
2722.327	718
2724.306	703
2726.284	698
2728.262	704
2730.239	732
2732.215	716
2734.192	739
2736.167	732
2738.142	733
2740.117	752
2742.091	705
2744.064	701
2746.037	696
2748.009	701
2749.981	705
2751.952	687
2753.923	715
2755.893	697
2757.863	697
2759.832	700
2761.801	692
2763.769	704
2765.737	700
2767.704	706
2769.671	691
2771.637	689
2773.602	695
2775.567	685
2777.532	666
2779.496	706
2781.459	691
2783.422	681
2785.384	681
2787.346	687
2789.308	690
2791.268	700
2793.229	704
2795.189	684
2797.148	696
2799.107	676
2801.065	695
2803.022	713
2804.980	733
2806.936	711
2808.892	701
2810.848	711
2812.803	700
2814.758	726
2816.712	709
2818.665	702
2820.618	681
2822.571	687
2824.523	693
2826.474	696
2828.425	690
2830.375	696
2832.325	701
2834.275	696
2836.223	710
2838.172	709
2840.120	742
2842.067	751
2844.014	728
2845.960	757
2847.906	773
2849.851	757
2851.796	766
2853.740	792
2855.683	857
2857.627	802
2859.569	836
2861.511	818
2863.453	801
2865.394	859
2867.335	848
2869.275	811
2871.214	824
2873.153	803
2875.092	821
2877.030	856
2878.967	808
2880.904	808
2882.841	776
2884.777	847
2886.712	808
2888.647	810
2890.581	806
2892.515	820
2894.449	804
2896.382	835
2898.314	842
2900.246	837
2902.177	891
2904.108	924
2906.038	996
2907.968	1084
2909.897	1119
2911.826	1168
2913.755	1233
2915.682	1271
2917.610	1291
2919.536	1277
2921.463	1223
2923.388	1162
2925.313	1076
2927.238	1053
2929.162	991
2931.086	1005
2933.009	957
2934.932	861
2936.854	881
2938.776	867
2940.697	829
2942.618	810
2944.538	832
2946.457	828
2948.376	820
2950.295	801
2952.213	817
2954.131	804
2956.048	814
2957.964	784
2959.881	797
2961.796	794
2963.711	823
2965.626	799
2967.540	774
2969.453	792
2971.366	826
2973.279	793
2975.191	838
2977.103	852
2979.014	870
2980.924	861
2982.834	841
2984.744	816
2986.653	816
2988.561	801
2990.469	785
2992.377	823
2994.284	828
2996.190	805
2998.096	863
3000.002	847
3001.907	820
3003.811	862
3005.715	812
3007.619	836
3009.522	785
3011.424	841
3013.326	849
3015.228	852
3017.129	857
3019.029	881
3020.929	900
3022.829	923
3024.728	1014
3026.626	1026
3028.524	999
3030.422	1041
3032.319	1071
3034.215	1123
3036.111	1086
3038.007	1168
3039.902	1131
3041.797	1198
3043.691	1266
3045.584	1383
3047.477	1484
3049.370	1683
3051.262	1645
3053.153	1752
3055.044	1700
3056.935	1608
3058.825	1502
3060.714	1449
3062.604	1342
3064.492	1285
3066.380	1198
3068.268	1088
3070.155	1050
3072.041	982
3073.928	925
3075.813	874
3077.698	811
3079.583	819
3081.467	807
3083.351	780
3085.234	834
3087.116	784
3088.999	772
3090.880	753
3092.761	744
3094.642	740
3096.522	723
3098.402	742
3100.281	718
3102.160	716
3104.038	703
3105.916	715
3107.793	714
3109.670	696
3111.546	698
3113.422	700
3115.297	697
3117.172	687
3119.046	663
3120.920	713
3122.793	704
3124.666	679
3126.539	687
3128.410	682
3130.282	700
3132.153	676
3134.023	693
3135.893	702
3137.762	688
3139.631	678
3141.500	687
3143.368	693
3145.235	685
3147.102	678
3148.969	682
3150.835	682
3152.700	683
3154.565	667
3156.430	694
3158.294	687
3160.157	699
3162.020	679
3163.883	693
3165.745	701
3167.607	695
3169.468	697
3171.329	692
3173.189	682
3175.048	681
3176.908	672
3178.766	677
3180.625	674
3182.482	691
3184.340	677
3186.196	669
3188.053	683
3189.909	662
3191.764	669
3193.619	657
3195.473	691
3197.327	693
3199.181	662
3201.034	681
3202.886	681
3204.738	663
3206.589	693
3208.440	673
3210.291	668
3212.141	669
3213.991	663
3215.840	674
3217.688	663
3219.536	672
3221.384	656
3223.231	700
3225.078	653
3226.924	677
3228.770	657
3230.615	657
3232.460	645
3234.304	669
3236.148	653
3237.992	653
3239.834	687
3241.677	657
3243.519	678
3245.360	651
3247.201	645
3249.042	648
3250.882	660
3252.721	652
3254.560	661
3256.399	651
3258.237	660
3260.075	661
3261.912	653
3263.748	660
3265.585	645
3267.420	643
3269.256	683
3271.090	661
3272.925	654
3274.759	654
3276.592	660
3278.425	648
3280.257	651
3282.089	673
3283.921	668
3285.752	650
3287.582	654
3289.412	667
3291.242	660
3293.071	661
3294.899	661
3296.728	659
3298.555	646
3300.383	665
3302.209	663
3304.036	653
3305.861	657
3307.687	653
3309.512	661
3311.336	642
3313.160	656
3314.983	644
3316.806	662
3318.629	671
3320.451	653
3322.272	642
3324.094	667
3325.914	665
3327.734	679
3329.554	658
3331.373	654
3333.192	636

Frame 8
393.321	665
395.969	668
398.617	688
401.264	689
403.910	705
406.556	712
409.200	724
411.844	695
414.487	689
417.129	693
419.771	697
422.411	708
425.051	725
427.690	719
430.328	697
432.965	720
435.602	727
438.237	755
440.872	735
443.506	711
446.140	734
448.772	752
451.404	747
454.034	735
456.665	763
459.294	733
461.922	785
464.550	764
467.177	747
469.803	740
472.428	776
475.052	758
477.676	756
480.299	745
482.920	754
485.542	739
488.162	752
490.782	748
493.400	740
496.018	751
498.636	729
501.252	735
503.868	751
506.482	745
509.096	775
511.709	795
514.322	789
516.933	890
519.544	1014
522.154	1039
524.763	1116
527.372	1039
529.979	935
532.586	814
535.192	771
537.797	753
540.402	755
543.005	772
545.608	747
548.210	759
550.812	751
553.412	747
556.012	744
558.611	741
561.209	738
563.806	738
566.402	746
568.998	747
571.593	726
574.187	725
576.780	737
579.373	738
581.965	737
584.556	742
587.146	756
589.735	749
592.324	755
594.912	732
597.499	758
600.085	733
602.670	757
605.255	763
607.839	778
610.422	765
613.004	801
615.586	823
618.167	832
620.747	892
623.326	890
625.904	904
628.482	869
631.059	828
633.635	787
636.210	769
638.784	775
641.358	766
643.931	767
646.503	728
649.074	742
651.645	734
654.215	755
656.784	738
659.352	741
661.920	752
664.486	754
667.052	752
669.617	747
672.182	749
674.745	740
677.308	741
679.870	777
682.431	777
684.992	728
687.552	745
690.110	731
692.669	762
695.226	727
697.783	750
700.338	728
702.893	743
705.448	748
708.001	715
710.554	743
713.106	724
715.657	750
718.208	772
720.757	774
723.306	758
725.854	765
728.402	763
730.948	806
733.494	748
736.039	823
738.583	774
741.127	734
743.670	750
746.212	751
748.753	754
751.293	761
753.833	750
756.372	758
758.910	731
761.448	772
763.984	765
766.520	743
769.055	769
771.589	752
774.123	779
776.656	832
779.188	902
781.719	1168
784.250	1505
786.779	1673
789.308	1651
791.837	1529
794.364	1123
796.891	896
799.417	832
801.942	846
804.467	756
806.990	811
809.513	812
812.035	820
814.557	797
817.077	781
819.597	774
822.116	771
824.635	756
827.152	766
829.669	746
832.185	736
834.701	750
837.215	734
839.729	758
842.242	780
844.755	788
847.266	801
849.777	781
852.287	751
854.797	742
857.305	779
859.813	760
862.320	761
864.826	710
867.332	740
869.837	746
872.341	736
874.844	729
877.347	741
879.849	758
882.350	734
884.850	747
887.350	745
889.848	771
892.347	748
894.844	723
897.340	753
899.836	774
902.331	776
904.826	758
907.319	756
909.812	760
912.304	741
914.796	743
917.286	764
919.776	731
922.265	768
924.754	746
927.242	732
929.728	737
932.215	747
934.700	758
937.185	752
939.669	759
942.152	745
944.634	757
947.116	727
949.597	737
952.077	750
954.557	742
957.036	749
959.514	764
961.991	735
964.468	748
966.943	740
969.418	754
971.893	788
974.366	766
976.839	765
979.311	763
981.783	780
984.254	759
986.724	786
989.193	816
991.661	871
994.129	898
996.596	1025
999.062	1590
1001.528	1994
1003.993	2340
1006.457	2295
1008.920	2071
1011.383	1254
1013.844	874
1016.306	818
1018.766	801
1021.226	795
1023.685	886
1026.143	993
1028.600	1155
1031.057	1243
1033.513	1210
1035.968	1067
1038.423	855
1040.877	785
1043.330	760
1045.782	758
1048.234	756
1050.685	747
1053.135	761
1055.585	748
1058.033	742
1060.482	736
1062.929	754
1065.375	757
1067.821	744
1070.266	760
1072.711	766
1075.155	721
1077.598	773
1080.040	766
1082.481	752
1084.922	743
1087.362	738
1089.802	774
1092.240	757
1094.678	739
1097.115	759
1099.552	722
1101.988	732
1104.423	720
1106.857	725
1109.291	750
1111.723	742
1114.156	737
1116.587	750
1119.018	750
1121.448	747
1123.877	730
1126.306	771
1128.734	727
1131.161	744
1133.587	748
1136.013	737
1138.438	743
1140.862	789
1143.286	769
1145.709	773
1148.131	777
1150.552	817
1152.973	846
1155.393	825
1157.812	851
1160.231	840
1162.649	816
1165.066	802
1167.482	837
1169.898	802
1172.313	812
1174.727	817
1177.141	830
1179.554	834
1181.966	817
1184.377	826
1186.788	814
1189.198	809
1191.607	780
1194.016	770
1196.424	778
1198.831	800
1201.238	799
1203.644	873
1206.049	985
1208.453	1144
1210.857	1198
1213.260	1165
1215.662	1072
1218.064	865
1220.464	830
1222.865	746
1225.264	759
1227.663	757
1230.061	737
1232.458	771
1234.855	760
1237.251	733
1239.646	743
1242.041	714
1244.434	754
1246.828	736
1249.220	773
1251.612	735
1254.003	737
1256.393	771
1258.783	745
1261.172	749
1263.560	736
1265.947	747
1268.334	723
1270.720	744
1273.106	749
1275.491	760
1277.875	748
1280.258	753
1282.641	733
1285.022	729
1287.404	748
1289.784	760
1292.164	760
1294.543	757
1296.922	775
1299.300	761
1301.677	738
1304.053	765
1306.429	751
1308.804	731
1311.178	742
1313.552	748
1315.925	727
1318.297	757
1320.668	742
1323.039	752
1325.409	765
1327.779	741
1330.148	773
1332.516	789
1334.883	760
1337.250	762
1339.616	763
1341.981	760
1344.346	754
1346.710	745
1349.073	749
1351.436	774
1353.797	764
1356.159	763
1358.519	774
1360.879	786
1363.238	754
1365.597	783
1367.954	783
1370.311	776
1372.668	832
1375.023	849
1377.378	914
1379.733	885
1382.086	913
1384.439	868
1386.792	847
1389.143	790
1391.494	798
1393.844	780
1396.194	722
1398.543	784
1400.891	763
1403.239	785
1405.585	748
1407.931	783
1410.277	761
1412.622	770
1414.966	761
1417.309	788
1419.652	778
1421.994	782
1424.335	793
1426.676	782
1429.016	789
1431.355	813
1433.694	781
1436.032	797
1438.369	800
1440.706	792
1443.042	765
1445.377	804
1447.712	773
1450.046	768
1452.379	808
1454.712	808
1457.044	783
1459.375	799
1461.705	774
1464.035	760
1466.364	772
1468.693	780
1471.021	756
1473.348	765
1475.675	764
1478.000	780
1480.326	754
1482.650	781
1484.974	780
1487.297	783
1489.619	750
1491.941	744
1494.262	737
1496.583	774
1498.903	775
1501.222	754
1503.540	785
1505.858	773
1508.175	762
1510.492	778
1512.807	760
1515.123	763
1517.437	743
1519.751	760
1522.064	783
1524.376	747
1526.688	762
1528.999	793
1531.310	740
1533.619	763
1535.929	760
1538.237	768
1540.545	754
1542.852	763
1545.158	753
1547.464	774
1549.769	751
1552.074	755
1554.378	730
1556.681	762
1558.983	734
1561.285	740
1563.586	774
1565.887	782
1568.187	769
1570.486	781
1572.784	802
1575.082	811
1577.379	807
1579.676	884
1581.972	884
1584.267	896
1586.561	905
1588.855	867
1591.149	820
1593.441	850
1595.733	861
1598.024	947
1600.315	958
1602.605	1010
1604.894	992
1607.183	1026
1609.471	969
1611.758	949
1614.045	855
1616.331	850
1618.616	816
1620.901	801
1623.185	771
1625.468	829
1627.751	795
1630.033	787
1632.314	788
1634.595	782
1636.875	721
1639.155	741
1641.434	791
1643.712	759
1645.989	761
1648.266	749
1650.542	735
1652.818	744
1655.093	744
1657.367	763
1659.641	745
1661.914	745
1664.186	748
1666.457	758
1668.728	749
1670.999	758
1673.269	753
1675.538	736
1677.806	762
1680.074	747
1682.341	723
1684.607	724
1686.873	714
1689.138	742
1691.403	750
1693.667	741
1695.930	743
1698.193	749
1700.455	736
1702.716	770
1704.976	752
1707.236	741
1709.496	745
1711.755	727
1714.013	721
1716.270	751
1718.527	766
1720.783	733
1723.038	714
1725.293	755
1727.548	729
1729.801	721
1732.054	751
1734.306	706
1736.558	755
1738.809	734
1741.059	738
1743.309	731
1745.558	759
1747.807	750
1750.054	740
1752.302	739
1754.548	742
1756.794	713
1759.039	722
1761.284	725
1763.528	742
1765.771	736
1768.014	743
1770.256	732
1772.497	724
1774.738	734
1776.978	735
1779.218	728
1781.457	735
1783.695	749
1785.933	732
1788.170	729
1790.406	733
1792.642	726
1794.877	735
1797.111	730
1799.345	747
1801.578	723
1803.811	711
1806.043	711
1808.274	723
1810.505	742
1812.735	719
1814.964	722
1817.193	742
1819.421	725
1821.648	723
1823.875	730
1826.101	733
1828.327	730
1830.552	700
1832.776	731
1835.000	734
1837.223	714
1839.445	724
1841.667	731
1843.888	714
1846.109	734
1848.329	694
1850.548	711
1852.767	720
1854.985	751
1857.202	730
1859.419	735
1861.635	734
1863.851	727
1866.066	754
1868.280	731
1870.494	711
1872.707	731
1874.919	709
1877.131	721
1879.342	749
1881.553	747
1883.763	728
1885.972	734
1888.181	704
1890.389	734
1892.596	726
1894.803	732
1897.009	726
1899.215	719
1901.420	728
1903.624	703
1905.828	724
1908.031	743
1910.233	728
1912.435	728
1914.636	729
1916.837	721
1919.037	746
1921.236	734
1923.435	730
1925.633	745
1927.831	699
1930.027	721
1932.224	725
1934.419	718
1936.614	725
1938.809	719
1941.003	716
1943.196	732
1945.388	706
1947.580	721
1949.772	718
1951.962	757
1954.152	733
1956.342	740
1958.531	725
1960.719	731
1962.907	688
1965.094	728
1967.280	728
1969.466	757
1971.651	701
1973.836	708
1976.020	708
1978.203	712
1980.386	733
1982.568	722
1984.749	738
1986.930	714
1989.111	720
1991.290	738
1993.469	751
1995.648	706
1997.826	737
2000.003	724
2002.179	709
2004.355	715
2006.531	745
2008.706	730
2010.880	703
2013.053	727
2015.226	712
2017.399	707
2019.570	705
2021.742	724
2023.912	683
2026.082	717
2028.251	709
2030.420	731
2032.588	747
2034.756	709
2036.923	705
2039.089	704
2041.255	729
2043.420	719
2045.584	717
2047.748	717
2049.911	714
2052.074	712
2054.236	725
2056.397	725
2058.558	701
2060.719	723
2062.878	717
2065.037	721
2067.196	700
2069.354	735
2071.511	713
2073.667	686
2075.823	714
2077.979	700
2080.134	693
2082.288	704
2084.442	721
2086.595	738
2088.747	702
2090.899	723
2093.050	726
2095.201	713
2097.351	706
2099.500	719
2101.649	713
2103.797	706
2105.945	729
2108.092	711
2110.238	712
2112.384	757
2114.529	721
2116.674	720
2118.818	699
2120.962	721
2123.104	716
2125.247	716
2127.388	711
2129.529	719
2131.670	705
2133.810	712
2135.949	720
2138.088	707
2140.226	726
2142.363	723
2144.500	698
2146.637	709
2148.772	716
2150.908	718
2153.042	703
2155.176	684
2157.309	702
2159.442	707
2161.574	683
2163.706	720
2165.837	698
2167.967	702
2170.097	712
2172.226	735
2174.355	723
2176.483	724
2178.611	735
2180.737	694
2182.864	696
2184.989	701
2187.114	720
2189.239	705
2191.363	690
2193.486	698
2195.609	700
2197.731	687
2199.853	683
2201.974	710
2204.094	704
2206.214	719
2208.333	723
2210.452	705
2212.570	715
2214.687	694
2216.804	705
2218.920	715
2221.036	711
2223.151	700
2225.266	702
2227.380	704
2229.493	694
2231.606	716
2233.718	722
2235.830	695
2237.941	716
2240.051	711
2242.161	697
2244.270	695
2246.379	688
2248.487	708
2250.595	712
2252.702	714
2254.808	712
2256.914	699
2259.019	701
2261.124	722
2263.228	704
2265.331	703
2267.434	690
2269.536	736
2271.638	703
2273.739	690
2275.840	701
2277.940	690
2280.039	694
2282.138	694
2284.236	685
2286.334	686
2288.431	684
2290.528	696
2292.624	712
2294.719	699
2296.814	701
2298.908	724
2301.002	708
2303.095	700
2305.187	698
2307.279	721
2309.371	686
2311.461	703
2313.552	684
2315.641	698
2317.730	735
2319.819	711
2321.907	657
2323.994	719
2326.081	697
2328.167	705
2330.253	712
2332.338	708
2334.422	705
2336.506	706
2338.589	698
2340.672	697
2342.754	705
2344.836	707
2346.917	705
2348.997	697
2351.077	701
2353.157	687
2355.235	699
2357.313	704
2359.391	678
2361.468	688
2363.545	683
2365.621	710
2367.696	720
2369.771	697
2371.845	694
2373.918	693
2375.992	708
2378.064	693
2380.136	693
2382.207	708
2384.278	701
2386.348	694
2388.418	678
2390.487	694
2392.556	702
2394.624	706
2396.691	705
2398.758	690
2400.824	693
2402.890	678
2404.955	706
2407.020	698
2409.084	694
2411.147	696
2413.210	707
2415.272	704
2417.334	711
2419.395	687
2421.456	688
2423.516	709
2425.575	690
2427.634	691
2429.693	696
2431.751	703
2433.808	727
2435.865	691
2437.921	705
2439.976	697
2442.031	672
2444.086	698
2446.140	696
2448.193	673
2450.246	682
2452.298	687
2454.350	691
2456.401	688
2458.451	705
2460.501	710
2462.551	689
2464.600	695
2466.648	709
2468.696	702
2470.743	672
2472.790	692
2474.836	704
2476.881	709
2478.926	689
2480.971	695
2483.014	706
2485.058	699
2487.101	704
2489.143	697
2491.184	711
2493.225	690
2495.266	701
2497.306	713
2499.345	679
2501.384	696
2503.423	702
2505.460	699
2507.498	721
2509.534	683
2511.570	696
2513.606	716
2515.641	678
2517.675	694
2519.709	674
2521.742	708
2523.775	701
2525.807	715
2527.839	704
2529.870	707
2531.901	683
2533.931	680
2535.960	714
2537.989	700
2540.018	711
2542.046	696
2544.073	692
2546.100	710
2548.126	689
2550.151	703
2552.176	728
2554.201	676
2556.225	684
2558.248	696
2560.271	699
2562.294	698
2564.316	713
2566.337	695
2568.357	692
2570.378	676
2572.397	704
2574.416	696
2576.435	705
2578.453	697
2580.470	688
2582.487	704
2584.503	687
2586.519	699
2588.535	688
2590.549	684
2592.563	688
2594.577	707
2596.590	693
2598.603	708
2600.615	697
2602.626	710
2604.637	668
2606.647	717
2608.657	701
2610.666	693
2612.675	698
2614.683	670
2616.691	682
2618.698	690
2620.705	678
2622.711	718
2624.716	661
2626.721	693
2628.726	681
2630.729	683
2632.733	699
2634.736	687
2636.738	692
2638.739	695
2640.741	674
2642.741	691
2644.741	671
2646.741	685
2648.740	696
2650.738	695
2652.736	702
2654.734	660
2656.731	693
2658.727	692
2660.723	699
2662.718	685
2664.713	670
2666.707	704
2668.701	687
2670.694	695
2672.686	688
2674.678	697
2676.670	667
2678.661	700
2680.651	673
2682.641	687
2684.630	686
2686.619	660
2688.608	702
2690.595	681
2692.583	693
2694.569	682
2696.555	683
2698.541	687
2700.526	676
2702.511	694
2704.495	695
2706.478	686
2708.461	693
2710.444	695
2712.426	679
2714.407	669
2716.388	691
2718.368	686
2720.348	687
2722.327	707
2724.306	688
2726.284	703
2728.262	715
2730.239	743
2732.215	727
2734.192	734
2736.167	729
2738.142	716
2740.117	699
2742.091	677
2744.064	688
2746.037	683
2748.009	675
2749.981	706
2751.952	708
2753.923	666
2755.893	717
2757.863	688
2759.832	684
2761.801	693
2763.769	701
2765.737	690
2767.704	673
2769.671	684
2771.637	686
2773.602	677
2775.567	684
2777.532	685
2779.496	689
2781.459	706
2783.422	686
2785.384	697
2787.346	694
2789.308	689
2791.268	686
2793.229	691
2795.189	693
2797.148	680
2799.107	693
2801.065	692
2803.022	702
2804.980	681
2806.936	683
2808.892	699
2810.848	686
2812.803	703
2814.758	673
2816.712	690
2818.665	703
2820.618	716
2822.571	684
2824.523	712
2826.474	715
2828.425	717
2830.375	715
2832.325	720
2834.275	715
2836.223	723
2838.172	705
2840.120	724
2842.067	750
2844.014	752
2845.960	742
2847.906	749
2849.851	758
2851.796	807
2853.740	797
2855.683	817
2857.627	834
2859.569	844
2861.511	834
2863.453	861
2865.394	827
2867.335	850
2869.275	835
2871.214	815
2873.153	824
2875.092	817
2877.030	795
2878.967	849
2880.904	811
2882.841	821
2884.777	778
2886.712	814
2888.647	778
2890.581	844
2892.515	810
2894.449	855
2896.382	808
2898.314	866
2900.246	879
2902.177	869
2904.108	986
2906.038	954
2907.968	1059
2909.897	1068
2911.826	1138
2913.755	1244
2915.682	1261
2917.610	1309
2919.536	1289
2921.463	1217
2923.388	1182
2925.313	1128
2927.238	1042
2929.162	1021
2931.086	931
2933.009	933
2934.932	868
2936.854	899
2938.776	828
2940.697	849
2942.618	857
2944.538	843
2946.457	833
2948.376	810
2950.295	809
2952.213	813
2954.131	816
2956.048	778
2957.964	783
2959.881	763
2961.796	809
2963.711	795
2965.626	791
2967.540	797
2969.453	820
2971.366	807
2973.279	822
2975.191	868
2977.103	878
2979.014	860
2980.924	871
2982.834	842
2984.744	818
2986.653	841
2988.561	815
2990.469	804
2992.377	788
2994.284	785
2996.190	825
2998.096	853
3000.002	839
3001.907	860
3003.811	882
3005.715	814
3007.619	834
3009.522	834
3011.424	826
3013.326	854
3015.228	870
3017.129	864
3019.029	869
3020.929	893
3022.829	955
3024.728	937
3026.626	1018
3028.524	1044
3030.422	1076
3032.319	1085
3034.215	1092
3036.111	1114
3038.007	1101
3039.902	1127
3041.797	1178
3043.691	1261
3045.584	1403
3047.477	1496
3049.370	1573
3051.262	1684
3053.153	1842
3055.044	1662
3056.935	1661
3058.825	1505
3060.714	1403
3062.604	1378
3064.492	1331
3066.380	1171
3068.268	1101
3070.155	1003
3072.041	990
3073.928	887
3075.813	878
3077.698	875
3079.583	830
3081.467	772
3083.351	819
3085.234	770
3087.116	780
3088.999	753
3090.880	717
3092.761	745
3094.642	747
3096.522	719
3098.402	723
3100.281	724
3102.160	701
3104.038	722
3105.916	734
3107.793	681
3109.670	706
3111.546	700
3113.422	715
3115.297	704
3117.172	698
3119.046	695
3120.920	693
3122.793	694
3124.666	707
3126.539	713
3128.410	698
3130.282	698
3132.153	699
3134.023	688
3135.893	682
3137.762	692
3139.631	680
3141.500	695
3143.368	685
3145.235	682
3147.102	690
3148.969	676
3150.835	676
3152.700	694
3154.565	683
3156.430	687
3158.294	694
3160.157	686
3162.020	688
3163.883	692
3165.745	713
3167.607	692
3169.468	719
3171.329	691
3173.189	668
3175.048	663
3176.908	662
3178.766	673
3180.625	684
3182.482	677
3184.340	681
3186.196	654
3188.053	666
3189.909	659
3191.764	675
3193.619	668
3195.473	688
3197.327	662
3199.181	674
3201.034	678
3202.886	687
3204.738	681
3206.589	655
3208.440	669
3210.291	673
3212.141	667
3213.991	662
3215.840	694
3217.688	656
3219.536	676
3221.384	658
3223.231	670
3225.078	651
3226.924	664
3228.770	677
3230.615	657
3232.460	668
3234.304	662
3236.148	654
3237.992	655
3239.834	642
3241.677	637
3243.519	654
3245.360	672
3247.201	652
3249.042	638
3250.882	674
3252.721	666
3254.560	674
3256.399	645
3258.237	657
3260.075	653
3261.912	657
3263.748	651
3265.585	663
3267.420	653
3269.256	656
3271.090	642
3272.925	653
3274.759	640
3276.592	634
3278.425	669
3280.257	656
3282.089	651
3283.921	658
3285.752	641
3287.582	664
3289.412	661
3291.242	678
3293.071	659
3294.899	683
3296.728	659
3298.555	658
3300.383	659
3302.209	662
3304.036	655
3305.861	664
3307.687	644
3309.512	655
3311.336	671
3313.160	633
3314.983	647
3316.806	653
3318.629	653
3320.451	673
3322.272	663
3324.094	648
3325.914	645
3327.734	644
3329.554	662
3331.373	660
3333.192	649

Frame 9
393.321	677
395.969	674
398.617	687
401.264	677
403.910	666
406.556	686
409.200	705
411.844	726
414.487	713
417.129	683
419.771	705
422.411	714
425.051	711
427.690	723
430.328	731
432.965	704
435.602	725
438.237	712
440.872	741
443.506	690
446.140	724
448.772	742
451.404	727
454.034	773
456.665	756
459.294	729
461.922	768
464.550	766
467.177	765
469.803	760
472.428	739
475.052	763
477.676	748
480.299	750
482.920	732
485.542	735
488.162	723
490.782	759
493.400	745
496.018	742
498.636	762
501.252	730
503.868	775
506.482	749
509.096	757
511.709	789
514.322	795
516.933	920
519.544	957
522.154	1084
524.763	1073
527.372	1052
529.979	944
532.586	804
535.192	771
537.797	755
540.402	769
543.005	737
545.608	772
548.210	728
550.812	752
553.412	750
556.012	773
558.611	724
561.209	727
563.806	747
566.402	749
568.998	742
571.593	749
574.187	776
576.780	755
579.373	745
581.965	740
584.556	762
587.146	745
589.735	742
592.324	721
594.912	748
597.499	741
600.085	734
602.670	743
605.255	775
607.839	772
610.422	765
613.004	812
615.586	774
618.167	848
620.747	861
623.326	903
625.904	907
628.482	915
631.059	829
633.635	815
636.210	781
638.784	758
641.358	774
643.931	746
646.503	724
649.074	721
651.645	760
654.215	730
656.784	762
659.352	754
661.920	734
664.486	755
667.052	760
669.617	739
672.182	758
674.745	749
677.308	753
679.870	758
682.431	754
684.992	752
687.552	708
690.110	739
692.669	735
695.226	724
697.783	752
700.338	762
702.893	751
705.448	734
708.001	758
710.554	741
713.106	744
715.657	765
718.208	744
720.757	781
723.306	752
725.854	748
728.402	763
730.948	764
733.494	813
736.039	777
738.583	743
741.127	759
743.670	730
746.212	741
748.753	749
751.293	746
753.833	773
756.372	741
758.910	733
761.448	728
763.984	749
766.520	771
769.055	789
771.589	768
774.123	756
776.656	828
779.188	912
781.719	1201
784.250	1486
786.779	1683
789.308	1721
791.837	1508
794.364	1169
796.891	855
799.417	824
801.942	825
804.467	814
806.990	785
809.513	815
812.035	847
814.557	804
817.077	749
819.597	777
822.116	778
824.635	782
827.152	748
829.669	748
832.185	762
834.701	790
837.215	782
839.729	747
842.242	759
844.755	771
847.266	800
849.777	750
852.287	757
854.797	747
857.305	733
859.813	744
862.320	756
864.826	724
867.332	736
869.837	768
872.341	751
874.844	729
877.347	746
879.849	731
882.350	734
884.850	740
887.350	747
889.848	749
892.347	780
894.844	738
897.340	734
899.836	755
902.331	746
904.826	729
907.319	715
909.812	748
912.304	722
914.796	745
917.286	760
919.776	752
922.265	734
924.754	750
927.242	745
929.728	737
932.215	750
934.700	744
937.185	743
939.669	733
942.152	719
944.634	742
947.116	738
949.597	711
952.077	719
954.557	739
957.036	739
959.514	738
961.991	751
964.468	742
966.943	751
969.418	761
971.893	766
974.366	749
976.839	761
979.311	749
981.783	744
984.254	799
986.724	801
989.193	828
991.661	843
994.129	903
996.596	1023
999.062	1531
1001.528	2037
1003.993	2321
1006.457	2336
1008.920	1975
1011.383	1245
1013.844	932
1016.306	836
1018.766	825
1021.226	793
1023.685	867
1026.143	1008
1028.600	1156
1031.057	1182
1033.513	1210
1035.968	1070
1038.423	879
1040.877	747
1043.330	763
1045.782	798
1048.234	748
1050.685	756
1053.135	757
1055.585	759
1058.033	732
1060.482	728
1062.929	759
1065.375	741
1067.821	746
1070.266	775
1072.711	739
1075.155	739
1077.598	742
1080.040	761
1082.481	773
1084.922	762
1087.362	728
1089.802	745
1092.240	730
1094.678	734
1097.115	731
1099.552	742
1101.988	736
1104.423	746
1106.857	737
1109.291	724
1111.723	751
1114.156	763
1116.587	757
1119.018	753
1121.448	752
1123.877	738
1126.306	763
1128.734	765
1131.161	736
1133.587	751
1136.013	742
1138.438	771
1140.862	748
1143.286	744
1145.709	754
1148.131	758
1150.552	800
1152.973	838
1155.393	802
1157.812	855
1160.231	836
1162.649	851
1165.066	840
1167.482	819
1169.898	772
1172.313	805
1174.727	800
1177.141	841
1179.554	834
1181.966	841
1184.377	807
1186.788	762
1189.198	785
1191.607	788
1194.016	769
1196.424	788
1198.831	828
1201.238	814
1203.644	878
1206.049	994
1208.453	1121
1210.857	1137
1213.260	1111
1215.662	975
1218.064	874
1220.464	800
1222.865	723
1225.264	723
1227.663	783
1230.061	730
1232.458	735
1234.855	768
1237.251	762
1239.646	738
1242.041	745
1244.434	728
1246.828	746
1249.220	742
1251.612	746
1254.003	756
1256.393	743
1258.783	744
1261.172	739
1263.560	711
1265.947	735
1268.334	753
1270.720	730
1273.106	742
1275.491	724
1277.875	772
1280.258	723
1282.641	739
1285.022	726
1287.404	722
1289.784	725
1292.164	748
1294.543	749
1296.922	721
1299.300	705
1301.677	750
1304.053	769
1306.429	734
1308.804	758
1311.178	757
1313.552	749
1315.925	756
1318.297	762
1320.668	770
1323.039	754
1325.409	775
1327.779	738
1330.148	745
1332.516	751
1334.883	773
1337.250	744
1339.616	756
1341.981	774
1344.346	750
1346.710	767
1349.073	783
1351.436	749
1353.797	799
1356.159	752
1358.519	771
1360.879	748
1363.238	763
1365.597	734
1367.954	797
1370.311	800
1372.668	825
1375.023	846
1377.378	891
1379.733	881
1382.086	879
1384.439	809
1386.792	796
1389.143	799
1391.494	774
1393.844	786
1396.194	772
1398.543	752
1400.891	757
1403.239	750
1405.585	753
1407.931	766
1410.277	783
1412.622	798
1414.966	760
1417.309	767
1419.652	792
1421.994	758
1424.335	790
1426.676	744
1429.016	779
1431.355	785
1433.694	799
1436.032	782
1438.369	762
1440.706	814
1443.042	815
1445.377	791
1447.712	789
1450.046	783
1452.379	761
1454.712	794
1457.044	789
1459.375	769
1461.705	761
1464.035	755
1466.364	784
1468.693	791
1471.021	774
1473.348	776
1475.675	775
1478.000	781
1480.326	757
1482.650	764
1484.974	753
1487.297	768
1489.619	803
1491.941	753
1494.262	744
1496.583	768
1498.903	776
1501.222	789
1503.540	747
1505.858	753
1508.175	773
1510.492	769
1512.807	758
1515.123	777
1517.437	741
1519.751	764
1522.064	732
1524.376	766
1526.688	769
1528.999	769
1531.310	777
1533.619	731
1535.929	756
1538.237	751
1540.545	778
1542.852	762
1545.158	757
1547.464	729
1549.769	770
1552.074	772
1554.378	778
1556.681	745
1558.983	738
1561.285	771
1563.586	777
1565.887	758
1568.187	773
1570.486	763
1572.784	786
1575.082	821
1577.379	779
1579.676	891
1581.972	870
1584.267	913
1586.561	900
1588.855	904
1591.149	872
1593.441	857
1595.733	870
1598.024	875
1600.315	980
1602.605	957
1604.894	1022
1607.183	995
1609.471	939
1611.758	940
1614.045	864
1616.331	824
1618.616	802
1620.901	797
1623.185	778
1625.468	764
1627.751	778
1630.033	765
1632.314	779
1634.595	769
1636.875	757
1639.155	751
1641.434	769
1643.712	757
1645.989	729
1648.266	722
1650.542	772
1652.818	733
1655.093	763
1657.367	745
1659.641	766
1661.914	746
1664.186	762
1666.457	715
1668.728	752
1670.999	739
1673.269	766
1675.538	728
1677.806	747
1680.074	781
1682.341	760
1684.607	732
1686.873	725
1689.138	760
1691.403	733
1693.667	761
1695.930	721
1698.193	732
1700.455	742
1702.716	725
1704.976	733
1707.236	743
1709.496	728
1711.755	727
1714.013	710
1716.270	749
1718.527	736
1720.783	731
1723.038	735
1725.293	743
1727.548	752
1729.801	748
1732.054	730
1734.306	731
1736.558	743
1738.809	725
1741.059	760
1743.309	741
1745.558	736
1747.807	744
1750.054	712
1752.302	750
1754.548	747
1756.794	749
1759.039	727
1761.284	728
1763.528	748
1765.771	751
1768.014	754
1770.256	721
1772.497	701
1774.738	734
1776.978	746
1779.218	723
1781.457	750
1783.695	743
1785.933	740
1788.170	730
1790.406	734
1792.642	743
1794.877	755
1797.111	721
1799.345	760
1801.578	742
1803.811	707
1806.043	721
1808.274	749
1810.505	722
1812.735	753
1814.964	727
1817.193	734
1819.421	748
1821.648	730
1823.875	707
1826.101	753
1828.327	730
1830.552	739
1832.776	737
1835.000	747
1837.223	715
1839.445	735
1841.667	739
1843.888	723
1846.109	728
1848.329	752
1850.548	736
1852.767	737
1854.985	730
1857.202	727
1859.419	722
1861.635	719
1863.851	747
1866.066	733
1868.280	721
1870.494	758
1872.707	741
1874.919	740
1877.131	738
1879.342	726
1881.553	722
1883.763	733
1885.972	728
1888.181	721
1890.389	743
1892.596	728
1894.803	712
1897.009	689
1899.215	711
1901.420	742
1903.624	725
1905.828	721
1908.031	719
1910.233	740
1912.435	722
1914.636	725
1916.837	729
1919.037	707
1921.236	727
1923.435	728
1925.633	719
1927.831	734
1930.027	724
1932.224	719
1934.419	731
1936.614	745
1938.809	723
1941.003	729
1943.196	745
1945.388	740
1947.580	724
1949.772	725
1951.962	706
1954.152	710
1956.342	716
1958.531	732
1960.719	721
1962.907	726
1965.094	726
1967.280	715
1969.466	711
1971.651	709
1973.836	725
1976.020	686
1978.203	691
1980.386	718
1982.568	701
1984.749	737
1986.930	728
1989.111	755
1991.290	713
1993.469	736
1995.648	713
1997.826	729
2000.003	715
2002.179	709
2004.355	687
2006.531	735
2008.706	697
2010.880	722
2013.053	706
2015.226	716
2017.399	713
2019.570	736
2021.742	716
2023.912	718
2026.082	724
2028.251	703
2030.420	722
2032.588	718
2034.756	724
2036.923	724
2039.089	731
2041.255	704
2043.420	715
2045.584	725
2047.748	718
2049.911	707
2052.074	710
2054.236	721
2056.397	717
2058.558	694
2060.719	721
2062.878	731
2065.037	697
2067.196	691
2069.354	737
2071.511	721
2073.667	709
2075.823	703
2077.979	723
2080.134	738
2082.288	697
2084.442	707
2086.595	703
2088.747	711
2090.899	694
2093.050	717
2095.201	716
2097.351	699
2099.500	706
2101.649	728
2103.797	736
2105.945	700
2108.092	715
2110.238	705
2112.384	721
2114.529	695
2116.674	677
2118.818	722
2120.962	711
2123.104	725
2125.247	740
2127.388	706
2129.529	690
2131.670	726
2133.810	714
2135.949	711
2138.088	694
2140.226	707
2142.363	712
2144.500	695
2146.637	722
2148.772	719
2150.908	690
2153.042	707
2155.176	715
2157.309	682
2159.442	697
2161.574	714
2163.706	731
2165.837	703
2167.967	725
2170.097	725
2172.226	735
2174.355	702
2176.483	697
2178.611	707
2180.737	721
2182.864	689
2184.989	704
2187.114	738
2189.239	708
2191.363	728
2193.486	671
2195.609	701
2197.731	732
2199.853	666
2201.974	715
2204.094	721
2206.214	716
2208.333	719
2210.452	702
2212.570	717
2214.687	691
2216.804	708
2218.920	698
2221.036	697
2223.151	700
2225.266	698
2227.380	698
2229.493	732
2231.606	690
2233.718	682
2235.830	713
2237.941	722
2240.051	711
2242.161	687
2244.270	708
2246.379	690
2248.487	680
2250.595	710
2252.702	703
2254.808	696
2256.914	693
2259.019	699
2261.124	697
2263.228	720
2265.331	727
2267.434	698
2269.536	707
2271.638	719
2273.739	689
2275.840	694
2277.940	697
2280.039	712
2282.138	692
2284.236	696
2286.334	703
2288.431	731
2290.528	706
2292.624	683
2294.719	696
2296.814	704
2298.908	692
2301.002	685
2303.095	689
2305.187	694
2307.279	681
2309.371	688
2311.461	696
2313.552	709
2315.641	727
2317.730	697
2319.819	703
2321.907	699
2323.994	699
2326.081	687
2328.167	695
2330.253	703
2332.338	699
2334.422	723
2336.506	692
2338.589	676
2340.672	703
2342.754	702
2344.836	699
2346.917	677
2348.997	699
2351.077	686
2353.157	686
2355.235	687
2357.313	716
2359.391	701
2361.468	682
2363.545	691
2365.621	698
2367.696	685
2369.771	706
2371.845	689
2373.918	702
2375.992	709
2378.064	684
2380.136	690
2382.207	690
2384.278	692
2386.348	717
2388.418	706
2390.487	697
2392.556	697
2394.624	697
2396.691	683
2398.758	712
2400.824	697
2402.890	697
2404.955	712
2407.020	664
2409.084	693
2411.147	696
2413.210	698
2415.272	696
2417.334	720
2419.395	681
2421.456	701
2423.516	704
2425.575	686
2427.634	714
2429.693	705
2431.751	684
2433.808	698
2435.865	696
2437.921	686
2439.976	677
2442.031	712
2444.086	706
2446.140	708
2448.193	681
2450.246	697
2452.298	684
2454.350	694
2456.401	706
2458.451	680
2460.501	702
2462.551	682
2464.600	704
2466.648	695
2468.696	695
2470.743	668
2472.790	688
2474.836	676
2476.881	708
2478.926	684
2480.971	707
2483.014	677
2485.058	683
2487.101	689
2489.143	716
2491.184	680
2493.225	706
2495.266	699
2497.306	682
2499.345	698
2501.384	687
2503.423	678
2505.460	680
2507.498	705
2509.534	676
2511.570	687
2513.606	697
2515.641	673
2517.675	685
2519.709	706
2521.742	696
2523.775	697
2525.807	676
2527.839	675
2529.870	673
2531.901	689
2533.931	699
2535.960	673
2537.989	706
2540.018	693
2542.046	693
2544.073	713
2546.100	691
2548.126	699
2550.151	700
2552.176	689
2554.201	691
2556.225	698
2558.248	683
2560.271	687
2562.294	720
2564.316	695
2566.337	689
2568.357	688
2570.378	691
2572.397	680
2574.416	699
2576.435	714
2578.453	707
2580.470	709
2582.487	703
2584.503	696
2586.519	696
2588.535	690
2590.549	684
2592.563	700
2594.577	671
2596.590	695
2598.603	687
2600.615	693
2602.626	716
2604.637	709
2606.647	702
2608.657	693
2610.666	684
2612.675	691
2614.683	671
2616.691	700
2618.698	681
2620.705	677
2622.711	688
2624.716	666
2626.721	694
2628.726	677
2630.729	684
2632.733	677
2634.736	710
2636.738	709
2638.739	681
2640.741	678
2642.741	696
2644.741	706
2646.741	679
2648.740	680
2650.738	690
2652.736	678
2654.734	686
2656.731	699
2658.727	691
2660.723	700
2662.718	689
2664.713	699
2666.707	700
2668.701	695
2670.694	672
2672.686	675
2674.678	682
2676.670	670
2678.661	681
2680.651	667
2682.641	690
2684.630	696
2686.619	680
2688.608	664
2690.595	683
2692.583	668
2694.569	663
2696.555	686
2698.541	705
2700.526	699
2702.511	701
2704.495	693
2706.478	682
2708.461	658
2710.444	669
2712.426	688
2714.407	693
2716.388	674
2718.368	694
2720.348	680
2722.327	691
2724.306	687
2726.284	713
2728.262	703
2730.239	715
2732.215	735
2734.192	739
2736.167	717
2738.142	717
2740.117	715
2742.091	689
2744.064	704
2746.037	719
2748.009	705
2749.981	685
2751.952	689
2753.923	692
2755.893	698
2757.863	678
2759.832	678
2761.801	702
2763.769	676
2765.737	703
2767.704	696
2769.671	702
2771.637	691
2773.602	697
2775.567	661
2777.532	696
2779.496	678
2781.459	668
2783.422	689
2785.384	692
2787.346	695
2789.308	688
2791.268	690
2793.229	686
2795.189	700
2797.148	697
2799.107	686
2801.065	679
2803.022	686
2804.980	687
2806.936	698
2808.892	688
2810.848	689
2812.803	711
2814.758	703
2816.712	670
2818.665	702
2820.618	708
2822.571	707
2824.523	706
2826.474	697
2828.425	679
2830.375	694
2832.325	701
2834.275	711
2836.223	725
2838.172	744
2840.120	706
2842.067	703
2844.014	748
2845.960	732
2847.906	754
2849.851	775
2851.796	782
2853.740	824
2855.683	801
2857.627	823
2859.569	824
2861.511	815
2863.453	838
2865.394	809
2867.335	825
2869.275	817
2871.214	830
2873.153	818
2875.092	852
2877.030	810
2878.967	844
2880.904	810
2882.841	804
2884.777	793
2886.712	814
2888.647	817
2890.581	792
2892.515	782
2894.449	830
2896.382	800
2898.314	824
2900.246	849
2902.177	949
2904.108	976
2906.038	979
2907.968	1024
2909.897	1140
2911.826	1174
2913.755	1225
2915.682	1251
2917.610	1283
2919.536	1284
2921.463	1214
2923.388	1080
2925.313	1126
2927.238	1008
2929.162	979
2931.086	934
2933.009	904
2934.932	860
2936.854	855
2938.776	845
2940.697	834
2942.618	837
2944.538	831
2946.457	823
2948.376	836
2950.295	791
2952.213	822
2954.131	803
2956.048	823
2957.964	774
2959.881	803
2961.796	774
2963.711	782
2965.626	808
2967.540	775
2969.453	788
2971.366	787
2973.279	840
2975.191	878
2977.103	881
2979.014	853
2980.924	850
2982.834	833
2984.744	821
2986.653	806
2988.561	800
2990.469	786
2992.377	789
2994.284	812
2996.190	822
2998.096	834
3000.002	818
3001.907	851
3003.811	825
3005.715	821
3007.619	793
3009.522	807
3011.424	830
3013.326	812
3015.228	827
3017.129	837
3019.029	852
3020.929	873
3022.829	962
3024.728	949
3026.626	996
3028.524	1034
3030.422	1068
3032.319	1076
3034.215	1047
3036.111	1128
3038.007	1086
3039.902	1159
3041.797	1120
3043.691	1231
3045.584	1343
3047.477	1449
3049.370	1647
3051.262	1722
3053.153	1716
3055.044	1638
3056.935	1528
3058.825	1417
3060.714	1386
3062.604	1309
3064.492	1224
3066.380	1139
3068.268	1069
3070.155	1009
3072.041	939
3073.928	954
3075.813	871
3077.698	840
3079.583	814
3081.467	799
3083.351	797
3085.234	758
3087.116	756
3088.999	774
3090.880	751
3092.761	741
3094.642	702
3096.522	727
3098.402	733
3100.281	720
3102.160	730
3104.038	736
3105.916	734
3107.793	708
3109.670	710
3111.546	702
3113.422	685
3115.297	676
3117.172	689
3119.046	691
3120.920	712
3122.793	692
3124.666	690
3126.539	690
3128.410	693
3130.282	689
3132.153	691
3134.023	673
3135.893	694
3137.762	668
3139.631	685
3141.500	697
3143.368	685
3145.235	721
3147.102	695
3148.969	660
3150.835	680
3152.700	669
3154.565	700
3156.430	695
3158.294	676
3160.157	665
3162.020	703
3163.883	680
3165.745	694
3167.607	711
3169.468	705
3171.329	693
3173.189	688
3175.048	684
3176.908	666
3178.766	679
3180.625	665
3182.482	658
3184.340	671
3186.196	668
3188.053	672
3189.909	661
3191.764	686
3193.619	686
3195.473	705
3197.327	695
3199.181	671
3201.034	670
3202.886	667
3204.738	661
3206.589	663
3208.440	674
3210.291	664
3212.141	671
3213.991	672
3215.840	661
3217.688	677
3219.536	663
3221.384	679
3223.231	678
3225.078	667
3226.924	663
3228.770	673
3230.615	661
3232.460	647
3234.304	670
3236.148	666
3237.992	670
3239.834	662
3241.677	635
3243.519	650
3245.360	650
3247.201	652
3249.042	661
3250.882	643
3252.721	648
3254.560	659
3256.399	665
3258.237	652
3260.075	660
3261.912	664
3263.748	649
3265.585	655
3267.420	650
3269.256	653
3271.090	635
3272.925	651
3274.759	661
3276.592	639
3278.425	645
3280.257	649
3282.089	652
3283.921	663
3285.752	672
3287.582	657
3289.412	660
3291.242	659
3293.071	636
3294.899	661
3296.728	645
3298.555	652
3300.383	667
3302.209	662
3304.036	667
3305.861	654
3307.687	649
3309.512	653
3311.336	663
3313.160	650
3314.983	660
3316.806	648
3318.629	658
3320.451	653
3322.272	645
3324.094	641
3325.914	651
3327.734	676
3329.554	647
3331.373	648
3333.192	649

Frame 10
393.321	687
395.969	691
398.617	670
401.264	703
403.910	695
406.556	717
409.200	714
411.844	695
414.487	693
417.129	691
419.771	715
422.411	708
425.051	722
427.690	731
430.328	765
432.965	714
435.602	720
438.237	749
440.872	743
443.506	694
446.140	775
448.772	728
451.404	728
454.034	735
456.665	753
459.294	751
461.922	739
464.550	767
467.177	766
469.803	775
472.428	757
475.052	730
477.676	745
480.299	741
482.920	743
485.542	740
488.162	767
490.782	716
493.400	755
496.018	745
498.636	747
501.252	737
503.868	744
506.482	755
509.096	775
511.709	768
514.322	831
516.933	875
519.544	977
522.154	1051
524.763	1078
527.372	1049
529.979	914
532.586	813
535.192	785
537.797	785
540.402	748
543.005	750
545.608	755
548.210	740
550.812	775
553.412	745
556.012	740
558.611	755
561.209	731
563.806	740
566.402	746
568.998	763
571.593	737
574.187	749
576.780	761
579.373	744
581.965	751
584.556	729
587.146	738
589.735	769
592.324	773
594.912	733
597.499	756
600.085	727
602.670	788
605.255	751
607.839	741
610.422	752
613.004	763
615.586	850
618.167	816
620.747	837
623.326	889
625.904	876
628.482	924
631.059	840
633.635	806
636.210	792
638.784	760
641.358	777
643.931	736
646.503	727
649.074	743
651.645	734
654.215	743
656.784	739
659.352	766
661.920	746
664.486	732
667.052	737
669.617	725
672.182	751
674.745	745
677.308	723
679.870	737
682.431	732
684.992	760
687.552	738
690.110	732
692.669	746
695.226	760
697.783	749
700.338	769
702.893	762
705.448	725
708.001	717
710.554	766
713.106	714
715.657	751
718.208	749
720.757	751
723.306	772
725.854	773
728.402	747
730.948	790
733.494	763
736.039	771
738.583	756
741.127	754
743.670	763
746.212	737
748.753	764
751.293	734
753.833	760
756.372	765
758.910	756
761.448	745
763.984	737
766.520	773
769.055	757
771.589	797
774.123	806
776.656	837
779.188	918
781.719	1077
784.250	1431
786.779	1674
789.308	1643
791.837	1549
794.364	1146
796.891	884
799.417	818
801.942	799
804.467	788
806.990	793
809.513	820
812.035	786
814.557	782
817.077	764
819.597	779
822.116	765
824.635	772
827.152	767
829.669	784
832.185	748
834.701	769
837.215	748
839.729	775
842.242	736
844.755	781
847.266	768
849.777	742
852.287	729
854.797	714
857.305	744
859.813	749
862.320	777
864.826	725
867.332	738
869.837	721
872.341	766
874.844	743
877.347	767
879.849	751
882.350	740
884.850	752
887.350	756
889.848	762
892.347	774
894.844	765
897.340	761
899.836	777
902.331	755
904.826	771
907.319	756
909.812	724
912.304	737
914.796	718
917.286	733
919.776	715
922.265	742
924.754	746
927.242	739
929.728	752
932.215	722
934.700	740
937.185	734
939.669	720
942.152	763
944.634	733
947.116	765
949.597	751
952.077	758
954.557	742
957.036	746
959.514	761
961.991	765
964.468	763
966.943	745
969.418	774
971.893	750
974.366	772
976.839	744
979.311	780
981.783	771
984.254	790
986.724	813
989.193	828
991.661	849
994.129	892
996.596	1045
999.062	1569
1001.528	2032
1003.993	2303
1006.457	2317
1008.920	1936
1011.383	1200
1013.844	908
1016.306	839
1018.766	797
1021.226	794
1023.685	870
1026.143	1014
1028.600	1125
1031.057	1185
1033.513	1188
1035.968	1113
1038.423	876
1040.877	798
1043.330	784
1045.782	769
1048.234	750
1050.685	751
1053.135	779
1055.585	719
1058.033	752
1060.482	754
1062.929	755
1065.375	735
1067.821	762
1070.266	755
1072.711	739
1075.155	739
1077.598	745
1080.040	760
1082.481	756
1084.922	752
1087.362	778
1089.802	745
1092.240	752
1094.678	745
1097.115	744
1099.552	737
1101.988	752
1104.423	726
1106.857	729
1109.291	727
1111.723	737
1114.156	742
1116.587	739
1119.018	745
1121.448	752
1123.877	742
1126.306	754
1128.734	760
1131.161	753
1133.587	771
1136.013	756
1138.438	774
1140.862	782
1143.286	763
1145.709	786
1148.131	797
1150.552	799
1152.973	836
1155.393	887
1157.812	841
1160.231	814
1162.649	805
1165.066	789
1167.482	795
1169.898	801
1172.313	757
1174.727	797
1177.141	806
1179.554	845
1181.966	846
1184.377	831
1186.788	781
1189.198	800
1191.607	768
1194.016	747
1196.424	788
1198.831	788
1201.238	804
1203.644	896
1206.049	971
1208.453	1103
1210.857	1201
1213.260	1109
1215.662	1011
1218.064	870
1220.464	803
1222.865	788
1225.264	766
1227.663	733
1230.061	769
1232.458	746
1234.855	748
1237.251	767
1239.646	762
1242.041	747
1244.434	742
1246.828	747
1249.220	764
1251.612	740
1254.003	750
1256.393	750
1258.783	756
1261.172	754
1263.560	752
1265.947	732
1268.334	738
1270.720	760
1273.106	739
1275.491	733
1277.875	718
1280.258	755
1282.641	758
1285.022	758
1287.404	752
1289.784	715
1292.164	754
1294.543	719
1296.922	751
1299.300	747
1301.677	725
1304.053	780
1306.429	765
1308.804	772
1311.178	743
1313.552	745
1315.925	768
1318.297	736
1320.668	779
1323.039	768
1325.409	754
1327.779	763
1330.148	728
1332.516	775
1334.883	775
1337.250	742
1339.616	773
1341.981	769
1344.346	741
1346.710	770
1349.073	719
1351.436	748
1353.797	786
1356.159	786
1358.519	756
1360.879	757
1363.238	777
1365.597	764
1367.954	754
1370.311	791
1372.668	856
1375.023	862
1377.378	921
1379.733	886
1382.086	924
1384.439	870
1386.792	806
1389.143	789
1391.494	789
1393.844	780
1396.194	759
1398.543	797
1400.891	800
1403.239	758
1405.585	759
1407.931	761
1410.277	765
1412.622	765
1414.966	772
1417.309	778
1419.652	792
1421.994	771
1424.335	778
1426.676	735
1429.016	761
1431.355	788
1433.694	765
1436.032	775
1438.369	804
1440.706	806
1443.042	788
1445.377	793
1447.712	770
1450.046	818
1452.379	791
1454.712	735
1457.044	781
1459.375	748
1461.705	783
1464.035	774
1466.364	750
1468.693	755
1471.021	783
1473.348	748
1475.675	788
1478.000	754
1480.326	747
1482.650	759
1484.974	771
1487.297	777
1489.619	775
1491.941	780
1494.262	760
1496.583	749
1498.903	764
1501.222	773
1503.540	754
1505.858	750
1508.175	749
1510.492	769
1512.807	731
1515.123	742
1517.437	758
1519.751	762
1522.064	758
1524.376	723
1526.688	738
1528.999	758
1531.310	756
1533.619	776
1535.929	737
1538.237	772
1540.545	748
1542.852	748
1545.158	726
1547.464	749
1549.769	776
1552.074	755
1554.378	773
1556.681	781
1558.983	738
1561.285	754
1563.586	740
1565.887	755
1568.187	774
1570.486	771
1572.784	760
1575.082	811
1577.379	842
1579.676	861
1581.972	865
1584.267	877
1586.561	873
1588.855	863
1591.149	873
1593.441	869
1595.733	876
1598.024	884
1600.315	928
1602.605	996
1604.894	976
1607.183	958
1609.471	930
1611.758	897
1614.045	842
1616.331	837
1618.616	781
1620.901	805
1623.185	803
1625.468	809
1627.751	756
1630.033	807
1632.314	783
1634.595	763
1636.875	773
1639.155	733
1641.434	755
1643.712	729
1645.989	739
1648.266	752
1650.542	763
1652.818	754
1655.093	766
1657.367	729
1659.641	761
1661.914	769
1664.186	759
1666.457	737
1668.728	736
1670.999	749
1673.269	742
1675.538	740
1677.806	727
1680.074	741
1682.341	773
1684.607	747
1686.873	747
1689.138	755
1691.403	736
1693.667	745
1695.930	751
1698.193	760
1700.455	738
1702.716	722
1704.976	756
1707.236	745
1709.496	729
1711.755	727
1714.013	742
1716.270	749
1718.527	729
1720.783	746
1723.038	715
1725.293	738
1727.548	735
1729.801	740
1732.054	749
1734.306	752
1736.558	742
1738.809	734
1741.059	729
1743.309	745
1745.558	756
1747.807	747
1750.054	712
1752.302	747
1754.548	740
1756.794	749
1759.039	732
1761.284	741
1763.528	716
1765.771	762
1768.014	743
1770.256	749
1772.497	719
1774.738	726
1776.978	752
1779.218	733
1781.457	756
1783.695	707
1785.933	724
1788.170	719
1790.406	739
1792.642	732
1794.877	751
1797.111	745
1799.345	712
1801.578	709
1803.811	750
1806.043	744
1808.274	722
1810.505	753
1812.735	722
1814.964	738
1817.193	708
1819.421	739
1821.648	710
1823.875	723
1826.101	739
1828.327	729
1830.552	717
1832.776	732
1835.000	728
1837.223	721
1839.445	734
1841.667	718
1843.888	708
1846.109	727
1848.329	740
1850.548	714
1852.767	737
1854.985	757
1857.202	719
1859.419	728
1861.635	736
1863.851	700
1866.066	728
1868.280	727
1870.494	730
1872.707	719
1874.919	757
1877.131	737
1879.342	741
1881.553	718
1883.763	725
1885.972	705
1888.181	753
1890.389	711
1892.596	723
1894.803	718
1897.009	710
1899.215	700
1901.420	742
1903.624	723
1905.828	712
1908.031	703
1910.233	725
1912.435	712
1914.636	729
1916.837	723
1919.037	732
1921.236	713
1923.435	715
1925.633	732
1927.831	722
1930.027	713
1932.224	734
1934.419	719
1936.614	730
1938.809	706
1941.003	719
1943.196	721
1945.388	717
1947.580	721
1949.772	708
1951.962	702
1954.152	756
1956.342	739
1958.531	738
1960.719	735
1962.907	708
1965.094	713
1967.280	734
1969.466	735
1971.651	719
1973.836	718
1976.020	704
1978.203	729
1980.386	726
1982.568	718
1984.749	748
1986.930	717
1989.111	725
1991.290	709
1993.469	737
1995.648	703
1997.826	696
2000.003	724
2002.179	703
2004.355	724
2006.531	745
2008.706	724
2010.880	710
2013.053	722
2015.226	717
2017.399	725
2019.570	724
2021.742	717
2023.912	696
2026.082	698
2028.251	709
2030.420	726
2032.588	723
2034.756	718
2036.923	716
2039.089	707
2041.255	709
2043.420	711
2045.584	700
2047.748	716
2049.911	720
2052.074	726
2054.236	729
2056.397	723
2058.558	733
2060.719	714
2062.878	715
2065.037	708
2067.196	724
2069.354	713
2071.511	697
2073.667	703
2075.823	717
2077.979	693
2080.134	719
2082.288	713
2084.442	723
2086.595	705
2088.747	710
2090.899	707
2093.050	694
2095.201	721
2097.351	709
2099.500	708
2101.649	703
2103.797	687
2105.945	703
2108.092	708
2110.238	707
2112.384	712
2114.529	703
2116.674	687
2118.818	721
2120.962	739
2123.104	719
2125.247	724
2127.388	696
2129.529	695
2131.670	717
2133.810	691
2135.949	715
2138.088	741
2140.226	713
2142.363	728
2144.500	693
2146.637	720
2148.772	685
2150.908	714
2153.042	697
2155.176	712
2157.309	698
2159.442	713
2161.574	700
2163.706	721
2165.837	713
2167.967	730
2170.097	700
2172.226	721
2174.355	717
2176.483	742
2178.611	727
2180.737	732
2182.864	699
2184.989	730
2187.114	709
2189.239	712
2191.363	707
2193.486	711
2195.609	707
2197.731	723
2199.853	678
2201.974	688
2204.094	707
2206.214	697
2208.333	692
2210.452	714
2212.570	712
2214.687	690
2216.804	687
2218.920	709
2221.036	712
2223.151	703
2225.266	702
2227.380	721
2229.493	721
2231.606	705
2233.718	712
2235.830	696
2237.941	692
2240.051	702
2242.161	722
2244.270	712
2246.379	725
2248.487	698
2250.595	703
2252.702	688
2254.808	702
2256.914	711
2259.019	696
2261.124	693
2263.228	711
2265.331	677
2267.434	692
2269.536	716
2271.638	691
2273.739	707
2275.840	692
2277.940	709
2280.039	705
2282.138	698
2284.236	723
2286.334	701
2288.431	707
2290.528	674
2292.624	714
2294.719	702
2296.814	719
2298.908	706
2301.002	714
2303.095	696
2305.187	690
2307.279	697
2309.371	688
2311.461	703
2313.552	715
2315.641	682
2317.730	724
2319.819	705
2321.907	688
2323.994	704
2326.081	715
2328.167	703
2330.253	703
2332.338	710
2334.422	680
2336.506	683
2338.589	671
2340.672	699
2342.754	682
2344.836	680
2346.917	702
2348.997	696
2351.077	705
2353.157	712
2355.235	711
2357.313	681
2359.391	695
2361.468	694
2363.545	684
2365.621	708
2367.696	690
2369.771	700
2371.845	700
2373.918	725
2375.992	690
2378.064	703
2380.136	711
2382.207	704
2384.278	698
2386.348	685
2388.418	691
2390.487	695
2392.556	709
2394.624	705
2396.691	700
2398.758	698
2400.824	698
2402.890	697
2404.955	703
2407.020	698
2409.084	712
2411.147	716
2413.210	690
2415.272	687
2417.334	733
2419.395	700
2421.456	696
2423.516	699
2425.575	710
2427.634	711
2429.693	695
2431.751	697
2433.808	694
2435.865	698
2437.921	671
2439.976	705
2442.031	711
2444.086	693
2446.140	678
2448.193	702
2450.246	693
2452.298	686
2454.350	697
2456.401	685
2458.451	692
2460.501	692
2462.551	715
2464.600	707
2466.648	731
2468.696	688
2470.743	681
2472.790	687
2474.836	697
2476.881	686
2478.926	693
2480.971	691
2483.014	691
2485.058	680
2487.101	704
2489.143	671
2491.184	695
2493.225	693
2495.266	694
2497.306	707
2499.345	676
2501.384	691
2503.423	692
2505.460	692
2507.498	702
2509.534	696
2511.570	682
2513.606	681
2515.641	684
2517.675	708
2519.709	733
2521.742	688
2523.775	706
2525.807	698
2527.839	714
2529.870	708
2531.901	707
2533.931	690
2535.960	683
2537.989	705
2540.018	695
2542.046	702
2544.073	696
2546.100	704
2548.126	696
2550.151	703
2552.176	684
2554.201	700
2556.225	690
2558.248	708
2560.271	701
2562.294	683
2564.316	708
2566.337	688
2568.357	722
2570.378	695
2572.397	662
2574.416	687
2576.435	669
2578.453	723
2580.470	697
2582.487	712
2584.503	688
2586.519	678
2588.535	699
2590.549	720
2592.563	704
2594.577	717
2596.590	696
2598.603	705
2600.615	691
2602.626	687
2604.637	717
2606.647	720
2608.657	721
2610.666	675
2612.675	703
2614.683	722
2616.691	696
2618.698	671
2620.705	689
2622.711	686
2624.716	679
2626.721	683
2628.726	662
2630.729	713
2632.733	679
2634.736	686
2636.738	693
2638.739	679
2640.741	686
2642.741	711
2644.741	681
2646.741	675
2648.740	696
2650.738	706
2652.736	692
2654.734	688
2656.731	675
2658.727	709
2660.723	697
2662.718	696
2664.713	677
2666.707	697
2668.701	680
2670.694	674
2672.686	707
2674.678	685
2676.670	675
2678.661	694
2680.651	681
2682.641	685
2684.630	670
2686.619	668
2688.608	665
2690.595	692
2692.583	694
2694.569	690
2696.555	677
2698.541	675
2700.526	694
2702.511	659
2704.495	689
2706.478	681
2708.461	711
2710.444	697
2712.426	667
2714.407	692
2716.388	671
2718.368	697
2720.348	711
2722.327	696
2724.306	721
2726.284	725
2728.262	727
2730.239	722
2732.215	720
2734.192	750
2736.167	728
2738.142	734
2740.117	719
2742.091	703
2744.064	703
2746.037	694
2748.009	724
2749.981	696
2751.952	695
2753.923	694
2755.893	696
2757.863	709
2759.832	701
2761.801	692
2763.769	689
2765.737	702
2767.704	671
2769.671	694
2771.637	695
2773.602	679
2775.567	704
2777.532	687
2779.496	683
2781.459	705
2783.422	697
2785.384	685
2787.346	688
2789.308	709
2791.268	694
2793.229	673
2795.189	680
2797.148	697
2799.107	691
2801.065	686
2803.022	700
2804.980	697
2806.936	696
2808.892	692
2810.848	682
2812.803	685
2814.758	687
2816.712	679
2818.665	677
2820.618	674
2822.571	700
2824.523	716
2826.474	689
2828.425	678
2830.375	720
2832.325	684
2834.275	720
2836.223	701
2838.172	709
2840.120	750
2842.067	729
2844.014	748
2845.960	752
2847.906	732
2849.851	763
2851.796	777
2853.740	793
2855.683	840
2857.627	789
2859.569	817
2861.511	854
2863.453	859
2865.394	807
2867.335	832
2869.275	875
2871.214	818
2873.153	817
2875.092	818
2877.030	820
2878.967	793
2880.904	817
2882.841	818
2884.777	800
2886.712	788
2888.647	826
2890.581	787
2892.515	805
2894.449	808
2896.382	789
2898.314	836
2900.246	881
2902.177	917
2904.108	928
2906.038	981
2907.968	1021
2909.897	1108
2911.826	1176
2913.755	1246
2915.682	1280
2917.610	1259
2919.536	1193
2921.463	1175
2923.388	1152
2925.313	1095
2927.238	1046
2929.162	1018
2931.086	954
2933.009	904
2934.932	906
2936.854	900
2938.776	857
2940.697	853
2942.618	805
2944.538	846
2946.457	821
2948.376	844
2950.295	816
2952.213	833
2954.131	826
2956.048	777
2957.964	795
2959.881	780
2961.796	776
2963.711	803
2965.626	781
2967.540	800
2969.453	798
2971.366	838
2973.279	861
2975.191	866
2977.103	869
2979.014	863
2980.924	868
2982.834	823
2984.744	802
2986.653	805
2988.561	793
2990.469	813
2992.377	813
2994.284	809
2996.190	804
2998.096	849
3000.002	828
3001.907	821
3003.811	807
3005.715	820
3007.619	840
3009.522	815
3011.424	827
3013.326	833
3015.228	858
3017.129	866
3019.029	833
3020.929	929
3022.829	916
3024.728	947
3026.626	997
3028.524	1028
3030.422	1018
3032.319	1088
3034.215	1096
3036.111	1050
3038.007	1120
3039.902	1087
3041.797	1172
3043.691	1242
3045.584	1383
3047.477	1483
3049.370	1623
3051.262	1745
3053.153	1651
3055.044	1654
3056.935	1574
3058.825	1378
3060.714	1404
3062.604	1358
3064.492	1207
3066.380	1167
3068.268	1079
3070.155	1005
3072.041	982
3073.928	911
3075.813	849
3077.698	825
3079.583	818
3081.467	793
3083.351	778
3085.234	813
3087.116	750
3088.999	729
3090.880	744
3092.761	741
3094.642	735
3096.522	745
3098.402	707
3100.281	731
3102.160	713
3104.038	719
3105.916	743
3107.793	714
3109.670	691
3111.546	691
3113.422	684
3115.297	677
3117.172	694
3119.046	694
3120.920	689
3122.793	678
3124.666	680
3126.539	681
3128.410	679
3130.282	702
3132.153	685
3134.023	698
3135.893	678
3137.762	684
3139.631	707
3141.500	671
3143.368	673
3145.235	688
3147.102	663
3148.969	672
3150.835	683
3152.700	701
3154.565	684
3156.430	672
3158.294	705
3160.157	684
3162.020	697
3163.883	689
3165.745	683
3167.607	709
3169.468	674
3171.329	665
3173.189	700
3175.048	653
3176.908	678
3178.766	651
3180.625	669
3182.482	688
3184.340	662
3186.196	675
3188.053	670
3189.909	660
3191.764	670
3193.619	663
3195.473	688
3197.327	695
3199.181	649
3201.034	692
3202.886	668
3204.738	670
3206.589	670
3208.440	680
3210.291	680
3212.141	691
3213.991	650
3215.840	672
3217.688	657
3219.536	685
3221.384	672
3223.231	663
3225.078	656
3226.924	655
3228.770	659
3230.615	660
3232.460	647
3234.304	645
3236.148	655
3237.992	666
3239.834	664
3241.677	671
3243.519	657
3245.360	648
3247.201	651
3249.042	652
3250.882	653
3252.721	661
3254.560	642
3256.399	658
3258.237	669
3260.075	655
3261.912	672
3263.748	646
3265.585	663
3267.420	665
3269.256	649
3271.090	635
3272.925	664
3274.759	655
3276.592	660
3278.425	660
3280.257	649
3282.089	657
3283.921	663
3285.752	647
3287.582	666
3289.412	654
3291.242	662
3293.071	668
3294.899	657
3296.728	658
3298.555	647
3300.383	654
3302.209	651
3304.036	670
3305.861	667
3307.687	649
3309.512	649
3311.336	662
3313.160	653
3314.983	648
3316.806	651
3318.629	661
3320.451	655
3322.272	654
3324.094	660
3325.914	650
3327.734	651
3329.554	645
3331.373	672
3333.192	656

